Vernier Format 2,
187_a3.txt 7/28/119 3:10:43,
Run 1,
Wavelength,Intensity
W,I
nm,rel
,
380.5,0.016
381.3,0.015
382.2,0.015
383,0.015
383.9,0.016
384.7,0.016
385.6,0.015
386.4,0.015
387.3,0.015
388.1,0.016
388.9,0.016
389.8,0.016
390.6,0.015
391.5,0.015
392.3,0.015
393.2,0.016
394,0.016
394.9,0.016
395.7,0.016
396.6,0.016
397.4,0.016
398.3,0.015
399.1,0.016
400,0.016
400.8,0.016
401.6,0.016
402.5,0.016
403.3,0.016
404.2,0.016
405,0.016
405.9,0.016
406.7,0.016
407.6,0.016
408.4,0.016
409.3,0.016
410.1,0.016
411,0.016
411.8,0.016
412.7,0.016
413.5,0.016
414.3,0.017
415.2,0.017
416,0.018
416.9,0.018
417.7,0.018
418.6,0.017
419.4,0.018
420.3,0.018
421.1,0.018
422,0.018
422.8,0.018
423.7,0.018
424.5,0.018
425.4,0.019
426.2,0.018
427,0.019
427.9,0.019
428.7,0.019
429.6,0.019
430.4,0.018
431.3,0.018
432.1,0.018
433,0.018
433.8,0.019
434.7,0.019
435.5,0.019
436.4,0.019
437.2,0.019
438.1,0.019
438.9,0.019
439.7,0.019
440.6,0.018
441.4,0.019
442.3,0.019
443.1,0.02
444,0.019
444.8,0.019
445.7,0.018
446.5,0.019
447.4,0.019
448.2,0.02
449.1,0.019
449.9,0.02
450.7,0.019
451.6,0.02
452.4,0.019
453.3,0.019
454.1,0.019
455,0.019
455.8,0.019
456.7,0.019
457.5,0.018
458.4,0.018
459.2,0.017
460.1,0.017
460.9,0.017
461.8,0.018
462.6,0.018
463.4,0.018
464.3,0.019
465.1,0.019
466,0.018
466.8,0.018
467.7,0.018
468.5,0.018
469.4,0.017
470.2,0.017
471.1,0.017
471.9,0.017
472.8,0.017
473.6,0.017
474.5,0.017
475.3,0.017
476.1,0.017
477,0.017
477.8,0.017
478.7,0.017
479.5,0.017
480.4,0.017
481.2,0.017
482.1,0.017
482.9,0.017
483.8,0.017
484.6,0.017
485.5,0.017
486.3,0.017
487.2,0.017
488,0.017
488.8,0.018
489.7,0.018
490.5,0.019
491.4,0.017
492.2,0.017
493.1,0.017
493.9,0.018
494.8,0.018
495.6,0.018
496.5,0.019
497.3,0.019
498.2,0.019
499,0.018
499.9,0.018
500.7,0.019
501.5,0.019
502.4,0.02
503.2,0.02
504.1,0.019
504.9,0.019
505.8,0.019
506.6,0.02
507.5,0.02
508.3,0.02
509.2,0.019
510,0.019
510.9,0.02
511.7,0.02
512.5,0.02
513.3,0.02
514.1,0.02
514.9,0.02
515.7,0.02
516.5,0.02
517.3,0.02
518,0.02
518.8,0.02
519.6,0.019
520.4,0.019
521.2,0.019
522,0.019
522.8,0.019
523.6,0.02
524.3,0.021
525.1,0.02
525.9,0.02
526.7,0.019
527.5,0.02
528.3,0.02
529.1,0.02
529.9,0.02
530.6,0.019
531.4,0.019
532.2,0.019
533,0.019
533.8,0.019
534.6,0.02
535.4,0.02
536.2,0.02
536.9,0.02
537.7,0.02
538.5,0.02
539.3,0.02
540.1,0.019
540.9,0.02
541.7,0.02
542.5,0.02
543.2,0.02
544,0.02
544.8,0.02
545.6,0.021
546.4,0.021
547.2,0.02
548,0.02
548.8,0.02
549.5,0.021
550.3,0.02
551.1,0.021
551.9,0.02
552.7,0.02
553.5,0.021
554.3,0.021
555.1,0.02
555.8,0.019
556.6,0.019
557.4,0.019
558.2,0.019
559,0.019
559.8,0.02
560.6,0.019
561.4,0.019
562.1,0.019
562.9,0.019
563.7,0.019
564.5,0.019
565.3,0.019
566.1,0.02
566.9,0.02
567.7,0.019
568.4,0.02
569.2,0.02
570,0.02
570.8,0.019
571.6,0.02
572.4,0.02
573.2,0.02
574,0.02
574.7,0.02
575.5,0.02
576.3,0.019
577.1,0.019
577.9,0.019
578.7,0.02
579.5,0.019
580.3,0.02
581,0.019
581.8,0.02
582.6,0.02
583.4,0.02
584.2,0.02
585,0.02
585.8,0.021
586.6,0.021
587.3,0.022
588.1,0.022
588.9,0.022
589.6,0.022
590.4,0.022
591.1,0.022
591.9,0.023
592.6,0.023
593.4,0.023
594.1,0.023
594.9,0.024
595.6,0.025
596.3,0.025
597.1,0.024
597.8,0.024
598.6,0.025
599.3,0.025
600.1,0.026
600.8,0.026
601.6,0.026
602.3,0.026
603.1,0.026
603.8,0.027
604.6,0.026
605.3,0.026
606.1,0.026
606.8,0.027
607.6,0.028
608.3,0.028
609.1,0.028
609.8,0.027
610.6,0.027
611.3,0.026
612,0.026
612.8,0.026
613.5,0.026
614.3,0.026
615,0.026
615.8,0.026
616.5,0.026
617.3,0.026
618,0.026
618.8,0.026
619.5,0.026
620.3,0.025
621,0.025
621.8,0.025
622.5,0.025
623.3,0.025
624,0.025
624.8,0.025
625.5,0.025
626.3,0.025
627,0.024
627.7,0.023
628.5,0.024
629.2,0.023
630,0.023
630.7,0.023
631.5,0.024
632.2,0.024
633,0.024
633.7,0.024
634.5,0.024
635.2,0.024
636,0.024
636.7,0.024
637.5,0.024
638.2,0.024
639,0.023
639.7,0.023
640.5,0.023
641.2,0.023
642,0.023
642.7,0.022
643.4,0.022
644.2,0.022
644.9,0.023
645.7,0.023
646.4,0.023
647.2,0.023
647.9,0.023
648.7,0.022
649.4,0.023
650.2,0.023
650.9,0.023
651.7,0.022
652.4,0.022
653.2,0.022
653.9,0.022
654.7,0.022
655.4,0.022
656.2,0.022
656.9,0.022
657.7,0.022
658.4,0.021
659.1,0.021
659.9,0.021
660.6,0.022
661.4,0.022
662.1,0.022
662.9,0.021
663.6,0.021
664.4,0.02
665.1,0.02
665.9,0.021
666.6,0.021
667.4,0.02
668.1,0.02
668.9,0.02
669.7,0.02
670.4,0.02
671.2,0.019
672,0.019
672.7,0.019
673.5,0.02
674.2,0.021
675,0.021
675.8,0.021
676.5,0.02
677.3,0.019
678.1,0.019
678.8,0.018
679.6,0.019
680.4,0.019
681.1,0.02
681.9,0.019
682.7,0.02
683.4,0.02
684.2,0.02
685,0.019
685.7,0.019
686.5,0.018
687.2,0.018
688,0.019
688.8,0.019
689.5,0.019
690.3,0.018
691.1,0.018
691.8,0.018
692.6,0.018
693.4,0.018
694.1,0.017
694.9,0.018
695.7,0.018
696.4,0.018
697.2,0.018
698,0.018
698.7,0.018
699.5,0.017
700.2,0.016
701,0.016
701.8,0.017
702.5,0.017
703.3,0.018
704.1,0.018
704.8,0.018
705.6,0.017
706.4,0.017
707.2,0.017
708,0.017
708.8,0.017
709.6,0.018
710.4,0.018
711.2,0.017
712.1,0.017
712.9,0.017
713.7,0.018
714.5,0.017
715.3,0.017
716.2,0.016
717,0.016
717.8,0.016
718.6,0.017
719.4,0.017
720.3,0.017
721.1,0.017
721.9,0.017
722.7,0.017
723.5,0.016
724.4,0.016
725.2,0.016
726,0.017
726.8,0.017
727.6,0.017
728.5,0.016
729.3,0.016
730.1,0.016
730.9,0.017
731.7,0.017
732.6,0.017
733.4,0.017
734.2,0.017
735,0.017
735.8,0.017
736.7,0.016
737.5,0.015
738.3,0.015
739.1,0.016
739.9,0.016
740.8,0.017
741.6,0.016
742.4,0.017
743.2,0.016
744,0.017
744.9,0.016
745.7,0.017
746.5,0.016
747.3,0.017
748.1,0.016
748.9,0.017
749.8,0.017
750.6,0.017
751.4,0.017
752.2,0.016
753,0.017
753.9,0.017
754.7,0.017
755.5,0.017
756.3,0.017
757.1,0.017
758,0.017
758.8,0.017
759.6,0.016
760.4,0.017
761.2,0.016
762.1,0.016
762.9,0.016
763.7,0.016
764.5,0.016
765.3,0.016
766.2,0.016
767,0.016
767.8,0.016
768.6,0.016
769.4,0.016
770.3,0.016
771.1,0.016
771.9,0.015
772.7,0.015
773.5,0.016
774.4,0.016
775.2,0.015
776,0.016
776.8,0.015
777.6,0.016
778.5,0.015
779.3,0.016
780.1,0.016
780.9,0.016
781.7,0.016
782.6,0.016
783.4,0.017
784.2,0.017
785,0.016
785.8,0.016
786.7,0.016
787.5,0.016
788.3,0.016
789.1,0.017
789.9,0.017
790.7,0.017
791.6,0.017
792.4,0.017
793.2,0.017
794,0.016
794.8,0.015
795.7,0.015
796.5,0.015
797.3,0.016
798.1,0.016
798.9,0.016
799.8,0.016
800.6,0.016
801.4,0.015
802.2,0.016
803,0.016
803.9,0.017
804.7,0.017
805.5,0.017
806.3,0.016
807.1,0.015
808,0.016
808.8,0.016
809.6,0.016
810.4,0.015
811.2,0.015
812.1,0.015
812.9,0.015
813.7,0.015
814.5,0.015
815.3,0.015
816.2,0.016
817,0.016
817.8,0.016
818.6,0.016
819.4,0.015
820.3,0.015
821.1,0.015
821.9,0.016
822.7,0.015
823.5,0.016
824.4,0.015
825.2,0.016
826,0.016
826.8,0.016
827.6,0.016
828.5,0.016
829.3,0.016
830.1,0.015
830.9,0.015
831.7,0.016
832.6,0.016
833.5,0.016
834.4,0.016
835.3,0.016
836.1,0.016
837,0.017
837.9,0.016
838.8,0.016
839.7,0.015
840.6,0.016
841.5,0.016
842.4,0.015
843.3,0.015
844.1,0.016
845,0.017
845.9,0.017
846.8,0.016
847.7,0.016
848.6,0.015
849.5,0.016
850.4,0.016
851.3,0.016
852.1,0.015
853,0.015
853.9,0.016
854.8,0.016
855.7,0.016
856.6,0.015
857.5,0.015
858.4,0.015
859.3,0.015
860.1,0.015
861,0.016
861.9,0.015
862.8,0.016
863.7,0.015
864.6,0.016
865.5,0.016
866.4,0.016
867.3,0.015
868.1,0.015
869,0.015
869.9,0.015
870.8,0.015
871.7,0.015
872.6,0.015
873.5,0.015
874.4,0.015
875.3,0.015
876.1,0.015
877,0.015
877.9,0.016
878.8,0.016
879.7,0.016
880.6,0.016
881.5,0.016
882.4,0.015
883.3,0.015
884.1,0.015
885,0.016
885.9,0.016
886.8,0.016
887.7,0.015
888.6,0.015
889.5,0.015
890.4,0.015
891.3,0.016
892.1,0.015
893,0.016
893.9,0.016
894.8,0.016
895.7,0.016
896.6,0.016
897.5,0.016
898.4,0.015
899.3,0.015
Vernier Format 2,
187_a3.txt 7/28/119 3:10:43,
Run 2,
Wavelength,Intensity
W,I
nm,rel
,
380.5,0.015
381.3,0.016
382.2,0.015
383,0.016
383.9,0.015
384.7,0.016
385.6,0.016
386.4,0.016
387.3,0.015
388.1,0.015
388.9,0.015
389.8,0.016
390.6,0.016
391.5,0.016
392.3,0.015
393.2,0.016
394,0.016
394.9,0.016
395.7,0.015
396.6,0.015
397.4,0.015
398.3,0.016
399.1,0.016
400,0.016
400.8,0.016
401.6,0.015
402.5,0.015
403.3,0.015
404.2,0.015
405,0.015
405.9,0.016
406.7,0.017
407.6,0.018
408.4,0.017
409.3,0.017
410.1,0.016
411,0.016
411.8,0.016
412.7,0.016
413.5,0.017
414.3,0.017
415.2,0.017
416,0.017
416.9,0.017
417.7,0.018
418.6,0.017
419.4,0.017
420.3,0.017
421.1,0.018
422,0.017
422.8,0.017
423.7,0.017
424.5,0.017
425.4,0.017
426.2,0.017
427,0.018
427.9,0.018
428.7,0.019
429.6,0.018
430.4,0.018
431.3,0.018
432.1,0.019
433,0.019
433.8,0.019
434.7,0.019
435.5,0.02
436.4,0.02
437.2,0.02
438.1,0.02
438.9,0.019
439.7,0.019
440.6,0.019
441.4,0.019
442.3,0.019
443.1,0.019
444,0.02
444.8,0.02
445.7,0.02
446.5,0.019
447.4,0.019
448.2,0.019
449.1,0.019
449.9,0.02
450.7,0.02
451.6,0.02
452.4,0.019
453.3,0.019
454.1,0.019
455,0.019
455.8,0.019
456.7,0.019
457.5,0.019
458.4,0.019
459.2,0.019
460.1,0.019
460.9,0.019
461.8,0.019
462.6,0.018
463.4,0.018
464.3,0.018
465.1,0.018
466,0.018
466.8,0.018
467.7,0.018
468.5,0.018
469.4,0.018
470.2,0.018
471.1,0.017
471.9,0.017
472.8,0.018
473.6,0.018
474.5,0.018
475.3,0.018
476.1,0.017
477,0.019
477.8,0.018
478.7,0.018
479.5,0.017
480.4,0.017
481.2,0.018
482.1,0.018
482.9,0.018
483.8,0.018
484.6,0.018
485.5,0.018
486.3,0.018
487.2,0.018
488,0.018
488.8,0.018
489.7,0.019
490.5,0.02
491.4,0.02
492.2,0.02
493.1,0.02
493.9,0.02
494.8,0.02
495.6,0.02
496.5,0.021
497.3,0.021
498.2,0.021
499,0.021
499.9,0.022
500.7,0.022
501.5,0.023
502.4,0.023
503.2,0.023
504.1,0.023
504.9,0.024
505.8,0.024
506.6,0.024
507.5,0.025
508.3,0.025
509.2,0.026
510,0.026
510.9,0.026
511.7,0.027
512.5,0.027
513.3,0.027
514.1,0.027
514.9,0.028
515.7,0.029
516.5,0.028
517.3,0.028
518,0.027
518.8,0.027
519.6,0.027
520.4,0.028
521.2,0.028
522,0.028
522.8,0.029
523.6,0.029
524.3,0.029
525.1,0.028
525.9,0.029
526.7,0.029
527.5,0.03
528.3,0.03
529.1,0.029
529.9,0.029
530.6,0.029
531.4,0.029
532.2,0.029
533,0.029
533.8,0.028
534.6,0.029
535.4,0.029
536.2,0.03
536.9,0.03
537.7,0.03
538.5,0.031
539.3,0.031
540.1,0.031
540.9,0.031
541.7,0.032
542.5,0.032
543.2,0.032
544,0.033
544.8,0.033
545.6,0.033
546.4,0.033
547.2,0.033
548,0.032
548.8,0.033
549.5,0.033
550.3,0.034
551.1,0.035
551.9,0.034
552.7,0.035
553.5,0.034
554.3,0.035
555.1,0.034
555.8,0.034
556.6,0.034
557.4,0.034
558.2,0.033
559,0.033
559.8,0.033
560.6,0.034
561.4,0.033
562.1,0.032
562.9,0.032
563.7,0.032
564.5,0.031
565.3,0.031
566.1,0.031
566.9,0.031
567.7,0.03
568.4,0.03
569.2,0.031
570,0.031
570.8,0.03
571.6,0.029
572.4,0.03
573.2,0.03
574,0.03
574.7,0.029
575.5,0.029
576.3,0.029
577.1,0.029
577.9,0.029
578.7,0.029
579.5,0.03
580.3,0.03
581,0.03
581.8,0.029
582.6,0.029
583.4,0.03
584.2,0.029
585,0.03
585.8,0.029
586.6,0.028
587.3,0.028
588.1,0.029
588.9,0.029
589.6,0.03
590.4,0.029
591.1,0.029
591.9,0.029
592.6,0.029
593.4,0.03
594.1,0.03
594.9,0.03
595.6,0.031
596.3,0.03
597.1,0.03
597.8,0.03
598.6,0.03
599.3,0.03
600.1,0.029
600.8,0.03
601.6,0.03
602.3,0.03
603.1,0.03
603.8,0.029
604.6,0.03
605.3,0.03
606.1,0.03
606.8,0.029
607.6,0.029
608.3,0.029
609.1,0.029
609.8,0.029
610.6,0.029
611.3,0.028
612,0.028
612.8,0.028
613.5,0.027
614.3,0.027
615,0.027
615.8,0.027
616.5,0.026
617.3,0.025
618,0.026
618.8,0.026
619.5,0.026
620.3,0.025
621,0.025
621.8,0.025
622.5,0.025
623.3,0.024
624,0.024
624.8,0.024
625.5,0.025
626.3,0.024
627,0.024
627.7,0.024
628.5,0.024
629.2,0.024
630,0.023
630.7,0.023
631.5,0.023
632.2,0.023
633,0.023
633.7,0.023
634.5,0.023
635.2,0.023
636,0.023
636.7,0.023
637.5,0.023
638.2,0.023
639,0.022
639.7,0.022
640.5,0.022
641.2,0.023
642,0.022
642.7,0.022
643.4,0.022
644.2,0.022
644.9,0.022
645.7,0.021
646.4,0.022
647.2,0.022
647.9,0.023
648.7,0.023
649.4,0.023
650.2,0.023
650.9,0.023
651.7,0.022
652.4,0.022
653.2,0.021
653.9,0.021
654.7,0.022
655.4,0.022
656.2,0.022
656.9,0.022
657.7,0.022
658.4,0.021
659.1,0.021
659.9,0.021
660.6,0.021
661.4,0.021
662.1,0.021
662.9,0.021
663.6,0.021
664.4,0.02
665.1,0.02
665.9,0.021
666.6,0.021
667.4,0.022
668.1,0.021
668.9,0.02
669.7,0.019
670.4,0.019
671.2,0.019
672,0.019
672.7,0.019
673.5,0.019
674.2,0.019
675,0.02
675.8,0.02
676.5,0.019
677.3,0.019
678.1,0.019
678.8,0.018
679.6,0.019
680.4,0.019
681.1,0.019
681.9,0.019
682.7,0.019
683.4,0.019
684.2,0.019
685,0.019
685.7,0.019
686.5,0.019
687.2,0.019
688,0.019
688.8,0.019
689.5,0.019
690.3,0.019
691.1,0.018
691.8,0.018
692.6,0.017
693.4,0.017
694.1,0.017
694.9,0.016
695.7,0.017
696.4,0.017
697.2,0.017
698,0.017
698.7,0.017
699.5,0.017
700.2,0.018
701,0.017
701.8,0.017
702.5,0.017
703.3,0.017
704.1,0.018
704.8,0.017
705.6,0.017
706.4,0.016
707.2,0.017
708,0.017
708.8,0.017
709.6,0.017
710.4,0.017
711.2,0.016
712.1,0.016
712.9,0.016
713.7,0.016
714.5,0.016
715.3,0.016
716.2,0.016
717,0.016
717.8,0.017
718.6,0.016
719.4,0.016
720.3,0.016
721.1,0.017
721.9,0.016
722.7,0.016
723.5,0.016
724.4,0.016
725.2,0.016
726,0.016
726.8,0.016
727.6,0.016
728.5,0.016
729.3,0.016
730.1,0.016
730.9,0.017
731.7,0.016
732.6,0.016
733.4,0.016
734.2,0.017
735,0.017
735.8,0.016
736.7,0.016
737.5,0.015
738.3,0.016
739.1,0.015
739.9,0.016
740.8,0.016
741.6,0.016
742.4,0.016
743.2,0.016
744,0.016
744.9,0.016
745.7,0.015
746.5,0.016
747.3,0.016
748.1,0.016
748.9,0.016
749.8,0.016
750.6,0.016
751.4,0.016
752.2,0.016
753,0.016
753.9,0.016
754.7,0.016
755.5,0.016
756.3,0.016
757.1,0.016
758,0.016
758.8,0.016
759.6,0.015
760.4,0.016
761.2,0.016
762.1,0.016
762.9,0.016
763.7,0.016
764.5,0.016
765.3,0.016
766.2,0.016
767,0.017
767.8,0.016
768.6,0.016
769.4,0.016
770.3,0.016
771.1,0.016
771.9,0.015
772.7,0.015
773.5,0.015
774.4,0.015
775.2,0.016
776,0.016
776.8,0.017
777.6,0.017
778.5,0.016
779.3,0.016
780.1,0.016
780.9,0.016
781.7,0.016
782.6,0.016
783.4,0.016
784.2,0.016
785,0.016
785.8,0.016
786.7,0.016
787.5,0.016
788.3,0.016
789.1,0.016
789.9,0.016
790.7,0.016
791.6,0.016
792.4,0.016
793.2,0.016
794,0.016
794.8,0.017
795.7,0.016
796.5,0.016
797.3,0.016
798.1,0.016
798.9,0.016
799.8,0.015
800.6,0.015
801.4,0.015
802.2,0.015
803,0.016
803.9,0.016
804.7,0.016
805.5,0.015
806.3,0.016
807.1,0.016
808,0.016
808.8,0.016
809.6,0.015
810.4,0.015
811.2,0.015
812.1,0.016
812.9,0.016
813.7,0.015
814.5,0.015
815.3,0.015
816.2,0.016
817,0.016
817.8,0.016
818.6,0.016
819.4,0.016
820.3,0.015
821.1,0.015
821.9,0.016
822.7,0.016
823.5,0.016
824.4,0.016
825.2,0.016
826,0.016
826.8,0.016
827.6,0.016
828.5,0.016
829.3,0.016
830.1,0.016
830.9,0.016
831.7,0.015
832.6,0.015
833.5,0.016
834.4,0.016
835.3,0.016
836.1,0.016
837,0.016
837.9,0.016
838.8,0.015
839.7,0.016
840.6,0.015
841.5,0.016
842.4,0.015
843.3,0.015
844.1,0.015
845,0.015
845.9,0.015
846.8,0.015
847.7,0.015
848.6,0.015
849.5,0.016
850.4,0.015
851.3,0.015
852.1,0.015
853,0.015
853.9,0.015
854.8,0.015
855.7,0.015
856.6,0.015
857.5,0.015
858.4,0.015
859.3,0.015
860.1,0.016
861,0.016
861.9,0.016
862.8,0.015
863.7,0.015
864.6,0.015
865.5,0.016
866.4,0.017
867.3,0.016
868.1,0.016
869,0.016
869.9,0.016
870.8,0.015
871.7,0.016
872.6,0.015
873.5,0.015
874.4,0.015
875.3,0.015
876.1,0.015
877,0.015
877.9,0.016
878.8,0.016
879.7,0.016
880.6,0.015
881.5,0.015
882.4,0.015
883.3,0.015
884.1,0.015
885,0.015
885.9,0.015
886.8,0.015
887.7,0.016
888.6,0.015
889.5,0.015
890.4,0.015
891.3,0.016
892.1,0.015
893,0.015
893.9,0.016
894.8,0.016
895.7,0.016
896.6,0.015
897.5,0.015
898.4,0.016
899.3,0.016
Vernier Format 2,
187_a3.txt 7/28/119 3:10:58,
Run 3,
Wavelength,Intensity
W,I
nm,rel
,
380.5,0.016
381.3,0.016
382.2,0.016
383,0.015
383.9,0.015
384.7,0.016
385.6,0.016
386.4,0.016
387.3,0.016
388.1,0.016
388.9,0.016
389.8,0.016
390.6,0.016
391.5,0.015
392.3,0.015
393.2,0.015
394,0.016
394.9,0.016
395.7,0.016
396.6,0.016
397.4,0.016
398.3,0.016
399.1,0.016
400,0.016
400.8,0.016
401.6,0.016
402.5,0.016
403.3,0.016
404.2,0.016
405,0.015
405.9,0.016
406.7,0.016
407.6,0.017
408.4,0.017
409.3,0.016
410.1,0.016
411,0.016
411.8,0.016
412.7,0.016
413.5,0.017
414.3,0.017
415.2,0.017
416,0.017
416.9,0.017
417.7,0.017
418.6,0.018
419.4,0.018
420.3,0.018
421.1,0.018
422,0.018
422.8,0.018
423.7,0.018
424.5,0.018
425.4,0.017
426.2,0.017
427,0.017
427.9,0.018
428.7,0.019
429.6,0.019
430.4,0.018
431.3,0.019
432.1,0.019
433,0.02
433.8,0.019
434.7,0.02
435.5,0.02
436.4,0.02
437.2,0.02
438.1,0.02
438.9,0.019
439.7,0.019
440.6,0.019
441.4,0.019
442.3,0.019
443.1,0.019
444,0.019
444.8,0.019
445.7,0.02
446.5,0.019
447.4,0.019
448.2,0.02
449.1,0.019
449.9,0.019
450.7,0.019
451.6,0.019
452.4,0.018
453.3,0.019
454.1,0.019
455,0.019
455.8,0.019
456.7,0.018
457.5,0.018
458.4,0.018
459.2,0.018
460.1,0.018
460.9,0.018
461.8,0.019
462.6,0.018
463.4,0.018
464.3,0.017
465.1,0.018
466,0.018
466.8,0.018
467.7,0.017
468.5,0.018
469.4,0.018
470.2,0.018
471.1,0.018
471.9,0.018
472.8,0.017
473.6,0.017
474.5,0.017
475.3,0.018
476.1,0.017
477,0.018
477.8,0.017
478.7,0.018
479.5,0.017
480.4,0.017
481.2,0.017
482.1,0.018
482.9,0.018
483.8,0.018
484.6,0.018
485.5,0.018
486.3,0.018
487.2,0.018
488,0.019
488.8,0.019
489.7,0.019
490.5,0.02
491.4,0.02
492.2,0.02
493.1,0.02
493.9,0.02
494.8,0.019
495.6,0.02
496.5,0.021
497.3,0.021
498.2,0.021
499,0.02
499.9,0.021
500.7,0.022
501.5,0.022
502.4,0.023
503.2,0.023
504.1,0.023
504.9,0.023
505.8,0.023
506.6,0.024
507.5,0.024
508.3,0.024
509.2,0.025
510,0.025
510.9,0.025
511.7,0.025
512.5,0.025
513.3,0.026
514.1,0.026
514.9,0.026
515.7,0.025
516.5,0.025
517.3,0.025
518,0.025
518.8,0.026
519.6,0.026
520.4,0.026
521.2,0.026
522,0.026
522.8,0.026
523.6,0.026
524.3,0.026
525.1,0.026
525.9,0.026
526.7,0.026
527.5,0.026
528.3,0.026
529.1,0.026
529.9,0.025
530.6,0.025
531.4,0.025
532.2,0.025
533,0.025
533.8,0.026
534.6,0.026
535.4,0.026
536.2,0.026
536.9,0.026
537.7,0.026
538.5,0.026
539.3,0.026
540.1,0.026
540.9,0.026
541.7,0.026
542.5,0.025
543.2,0.025
544,0.025
544.8,0.025
545.6,0.025
546.4,0.025
547.2,0.025
548,0.026
548.8,0.025
549.5,0.025
550.3,0.025
551.1,0.026
551.9,0.026
552.7,0.025
553.5,0.025
554.3,0.025
555.1,0.026
555.8,0.026
556.6,0.025
557.4,0.025
558.2,0.025
559,0.025
559.8,0.024
560.6,0.023
561.4,0.023
562.1,0.023
562.9,0.024
563.7,0.024
564.5,0.023
565.3,0.023
566.1,0.023
566.9,0.023
567.7,0.023
568.4,0.023
569.2,0.023
570,0.022
570.8,0.022
571.6,0.022
572.4,0.023
573.2,0.023
574,0.023
574.7,0.023
575.5,0.022
576.3,0.022
577.1,0.022
577.9,0.022
578.7,0.022
579.5,0.022
580.3,0.022
581,0.022
581.8,0.022
582.6,0.022
583.4,0.022
584.2,0.022
585,0.021
585.8,0.021
586.6,0.022
587.3,0.022
588.1,0.022
588.9,0.022
589.6,0.023
590.4,0.022
591.1,0.022
591.9,0.022
592.6,0.023
593.4,0.023
594.1,0.022
594.9,0.022
595.6,0.022
596.3,0.022
597.1,0.022
597.8,0.021
598.6,0.022
599.3,0.022
600.1,0.022
600.8,0.022
601.6,0.022
602.3,0.022
603.1,0.022
603.8,0.022
604.6,0.022
605.3,0.022
606.1,0.022
606.8,0.022
607.6,0.022
608.3,0.021
609.1,0.022
609.8,0.021
610.6,0.021
611.3,0.022
612,0.022
612.8,0.021
613.5,0.021
614.3,0.021
615,0.021
615.8,0.021
616.5,0.021
617.3,0.021
618,0.021
618.8,0.02
619.5,0.02
620.3,0.019
621,0.019
621.8,0.02
622.5,0.021
623.3,0.021
624,0.021
624.8,0.02
625.5,0.02
626.3,0.019
627,0.02
627.7,0.02
628.5,0.02
629.2,0.02
630,0.02
630.7,0.019
631.5,0.019
632.2,0.019
633,0.019
633.7,0.018
634.5,0.019
635.2,0.02
636,0.02
636.7,0.019
637.5,0.019
638.2,0.019
639,0.019
639.7,0.019
640.5,0.019
641.2,0.019
642,0.019
642.7,0.019
643.4,0.019
644.2,0.019
644.9,0.019
645.7,0.019
646.4,0.019
647.2,0.019
647.9,0.019
648.7,0.019
649.4,0.019
650.2,0.019
650.9,0.019
651.7,0.019
652.4,0.019
653.2,0.019
653.9,0.02
654.7,0.02
655.4,0.019
656.2,0.019
656.9,0.018
657.7,0.018
658.4,0.018
659.1,0.018
659.9,0.018
660.6,0.018
661.4,0.019
662.1,0.019
662.9,0.019
663.6,0.018
664.4,0.018
665.1,0.018
665.9,0.018
666.6,0.018
667.4,0.018
668.1,0.018
668.9,0.018
669.7,0.018
670.4,0.017
671.2,0.017
672,0.017
672.7,0.017
673.5,0.017
674.2,0.018
675,0.018
675.8,0.018
676.5,0.018
677.3,0.018
678.1,0.017
678.8,0.017
679.6,0.017
680.4,0.017
681.1,0.017
681.9,0.017
682.7,0.017
683.4,0.017
684.2,0.018
685,0.018
685.7,0.017
686.5,0.017
687.2,0.016
688,0.017
688.8,0.017
689.5,0.018
690.3,0.018
691.1,0.018
691.8,0.017
692.6,0.016
693.4,0.016
694.1,0.016
694.9,0.016
695.7,0.016
696.4,0.016
697.2,0.016
698,0.017
698.7,0.016
699.5,0.015
700.2,0.016
701,0.016
701.8,0.016
702.5,0.016
703.3,0.016
704.1,0.016
704.8,0.016
705.6,0.016
706.4,0.016
707.2,0.016
708,0.016
708.8,0.016
709.6,0.016
710.4,0.016
711.2,0.016
712.1,0.016
712.9,0.016
713.7,0.016
714.5,0.016
715.3,0.016
716.2,0.016
717,0.016
717.8,0.016
718.6,0.016
719.4,0.015
720.3,0.016
721.1,0.016
721.9,0.017
722.7,0.017
723.5,0.017
724.4,0.016
725.2,0.016
726,0.016
726.8,0.016
727.6,0.016
728.5,0.016
729.3,0.016
730.1,0.015
730.9,0.016
731.7,0.016
732.6,0.016
733.4,0.016
734.2,0.016
735,0.016
735.8,0.016
736.7,0.016
737.5,0.016
738.3,0.016
739.1,0.016
739.9,0.016
740.8,0.016
741.6,0.016
742.4,0.017
743.2,0.017
744,0.017
744.9,0.016
745.7,0.016
746.5,0.016
747.3,0.016
748.1,0.016
748.9,0.016
749.8,0.016
750.6,0.016
751.4,0.016
752.2,0.016
753,0.017
753.9,0.016
754.7,0.015
755.5,0.015
756.3,0.016
757.1,0.016
758,0.016
758.8,0.016
759.6,0.015
760.4,0.015
761.2,0.016
762.1,0.016
762.9,0.016
763.7,0.016
764.5,0.015
765.3,0.016
766.2,0.015
767,0.016
767.8,0.016
768.6,0.016
769.4,0.016
770.3,0.016
771.1,0.016
771.9,0.016
772.7,0.016
773.5,0.015
774.4,0.015
775.2,0.016
776,0.016
776.8,0.016
777.6,0.016
778.5,0.016
779.3,0.016
780.1,0.015
780.9,0.015
781.7,0.015
782.6,0.016
783.4,0.016
784.2,0.016
785,0.015
785.8,0.016
786.7,0.016
787.5,0.017
788.3,0.017
789.1,0.017
789.9,0.017
790.7,0.017
791.6,0.016
792.4,0.016
793.2,0.016
794,0.016
794.8,0.016
795.7,0.015
796.5,0.016
797.3,0.015
798.1,0.016
798.9,0.016
799.8,0.016
800.6,0.016
801.4,0.016
802.2,0.016
803,0.016
803.9,0.016
804.7,0.015
805.5,0.015
806.3,0.015
807.1,0.015
808,0.015
808.8,0.016
809.6,0.015
810.4,0.016
811.2,0.016
812.1,0.016
812.9,0.016
813.7,0.015
814.5,0.014
815.3,0.014
816.2,0.015
817,0.015
817.8,0.016
818.6,0.016
819.4,0.015
820.3,0.016
821.1,0.016
821.9,0.017
822.7,0.017
823.5,0.016
824.4,0.016
825.2,0.016
826,0.016
826.8,0.016
827.6,0.016
828.5,0.016
829.3,0.016
830.1,0.015
830.9,0.015
831.7,0.015
832.6,0.016
833.5,0.016
834.4,0.016
835.3,0.016
836.1,0.016
837,0.017
837.9,0.016
838.8,0.016
839.7,0.016
840.6,0.015
841.5,0.016
842.4,0.015
843.3,0.015
844.1,0.016
845,0.016
845.9,0.016
846.8,0.016
847.7,0.015
848.6,0.016
849.5,0.017
850.4,0.017
851.3,0.016
852.1,0.016
853,0.015
853.9,0.015
854.8,0.015
855.7,0.016
856.6,0.015
857.5,0.015
858.4,0.015
859.3,0.016
860.1,0.015
861,0.015
861.9,0.015
862.8,0.016
863.7,0.016
864.6,0.017
865.5,0.016
866.4,0.016
867.3,0.015
868.1,0.015
869,0.015
869.9,0.016
870.8,0.016
871.7,0.015
872.6,0.015
873.5,0.015
874.4,0.016
875.3,0.016
876.1,0.016
877,0.016
877.9,0.016
878.8,0.016
879.7,0.016
880.6,0.016
881.5,0.016
882.4,0.016
883.3,0.016
884.1,0.016
885,0.015
885.9,0.015
886.8,0.016
887.7,0.016
888.6,0.016
889.5,0.016
890.4,0.016
891.3,0.016
892.1,0.015
893,0.015
893.9,0.015
894.8,0.015
895.7,0.016
896.6,0.016
897.5,0.016
898.4,0.016
899.3,0.016
Vernier Format 2,
187_a3.txt 7/28/119 3:10:58,
Run 4,
Wavelength,Intensity
W,I
nm,rel
,
380.5,0.015
381.3,0.015
382.2,0.015
383,0.015
383.9,0.015
384.7,0.015
385.6,0.016
386.4,0.016
387.3,0.016
388.1,0.016
388.9,0.016
389.8,0.016
390.6,0.016
391.5,0.015
392.3,0.016
393.2,0.017
394,0.017
394.9,0.017
395.7,0.016
396.6,0.016
397.4,0.015
398.3,0.016
399.1,0.016
400,0.017
400.8,0.017
401.6,0.017
402.5,0.017
403.3,0.017
404.2,0.017
405,0.017
405.9,0.018
406.7,0.018
407.6,0.018
408.4,0.018
409.3,0.018
410.1,0.018
411,0.019
411.8,0.019
412.7,0.018
413.5,0.019
414.3,0.02
415.2,0.02
416,0.02
416.9,0.02
417.7,0.021
418.6,0.022
419.4,0.022
420.3,0.022
421.1,0.022
422,0.022
422.8,0.022
423.7,0.022
424.5,0.023
425.4,0.023
426.2,0.023
427,0.023
427.9,0.024
428.7,0.025
429.6,0.025
430.4,0.025
431.3,0.026
432.1,0.026
433,0.026
433.8,0.027
434.7,0.027
435.5,0.027
436.4,0.026
437.2,0.027
438.1,0.027
438.9,0.028
439.7,0.027
440.6,0.027
441.4,0.028
442.3,0.029
443.1,0.029
444,0.028
444.8,0.029
445.7,0.028
446.5,0.028
447.4,0.027
448.2,0.028
449.1,0.028
449.9,0.028
450.7,0.027
451.6,0.027
452.4,0.026
453.3,0.026
454.1,0.026
455,0.026
455.8,0.026
456.7,0.026
457.5,0.025
458.4,0.025
459.2,0.024
460.1,0.023
460.9,0.022
461.8,0.022
462.6,0.022
463.4,0.021
464.3,0.022
465.1,0.022
466,0.022
466.8,0.022
467.7,0.021
468.5,0.021
469.4,0.021
470.2,0.021
471.1,0.021
471.9,0.021
472.8,0.021
473.6,0.021
474.5,0.021
475.3,0.021
476.1,0.02
477,0.02
477.8,0.02
478.7,0.019
479.5,0.019
480.4,0.019
481.2,0.02
482.1,0.02
482.9,0.019
483.8,0.02
484.6,0.02
485.5,0.02
486.3,0.02
487.2,0.02
488,0.02
488.8,0.02
489.7,0.02
490.5,0.021
491.4,0.021
492.2,0.021
493.1,0.021
493.9,0.021
494.8,0.021
495.6,0.021
496.5,0.021
497.3,0.021
498.2,0.021
499,0.022
499.9,0.022
500.7,0.022
501.5,0.022
502.4,0.023
503.2,0.023
504.1,0.024
504.9,0.024
505.8,0.024
506.6,0.024
507.5,0.023
508.3,0.024
509.2,0.024
510,0.024
510.9,0.025
511.7,0.025
512.5,0.025
513.3,0.026
514.1,0.026
514.9,0.026
515.7,0.026
516.5,0.026
517.3,0.026
518,0.026
518.8,0.025
519.6,0.025
520.4,0.024
521.2,0.024
522,0.024
522.8,0.025
523.6,0.025
524.3,0.025
525.1,0.025
525.9,0.024
526.7,0.024
527.5,0.024
528.3,0.024
529.1,0.024
529.9,0.024
530.6,0.024
531.4,0.024
532.2,0.024
533,0.024
533.8,0.023
534.6,0.024
535.4,0.024
536.2,0.024
536.9,0.024
537.7,0.024
538.5,0.023
539.3,0.023
540.1,0.023
540.9,0.024
541.7,0.024
542.5,0.024
543.2,0.023
544,0.023
544.8,0.024
545.6,0.024
546.4,0.024
547.2,0.024
548,0.024
548.8,0.024
549.5,0.023
550.3,0.024
551.1,0.023
551.9,0.023
552.7,0.022
553.5,0.023
554.3,0.024
555.1,0.024
555.8,0.023
556.6,0.023
557.4,0.023
558.2,0.023
559,0.022
559.8,0.022
560.6,0.022
561.4,0.022
562.1,0.022
562.9,0.022
563.7,0.022
564.5,0.021
565.3,0.021
566.1,0.022
566.9,0.021
567.7,0.021
568.4,0.021
569.2,0.021
570,0.022
570.8,0.022
571.6,0.022
572.4,0.021
573.2,0.021
574,0.02
574.7,0.02
575.5,0.02
576.3,0.02
577.1,0.02
577.9,0.02
578.7,0.02
579.5,0.02
580.3,0.021
581,0.021
581.8,0.021
582.6,0.021
583.4,0.021
584.2,0.02
585,0.021
585.8,0.02
586.6,0.02
587.3,0.02
588.1,0.02
588.9,0.021
589.6,0.021
590.4,0.02
591.1,0.02
591.9,0.02
592.6,0.02
593.4,0.021
594.1,0.021
594.9,0.021
595.6,0.021
596.3,0.02
597.1,0.02
597.8,0.02
598.6,0.02
599.3,0.02
600.1,0.02
600.8,0.02
601.6,0.021
602.3,0.02
603.1,0.02
603.8,0.02
604.6,0.021
605.3,0.021
606.1,0.02
606.8,0.021
607.6,0.02
608.3,0.02
609.1,0.02
609.8,0.02
610.6,0.021
611.3,0.02
612,0.02
612.8,0.019
613.5,0.02
614.3,0.02
615,0.02
615.8,0.02
616.5,0.02
617.3,0.02
618,0.02
618.8,0.019
619.5,0.02
620.3,0.02
621,0.019
621.8,0.019
622.5,0.019
623.3,0.018
624,0.018
624.8,0.018
625.5,0.019
626.3,0.019
627,0.019
627.7,0.019
628.5,0.019
629.2,0.018
630,0.018
630.7,0.018
631.5,0.019
632.2,0.019
633,0.019
633.7,0.019
634.5,0.019
635.2,0.019
636,0.019
636.7,0.018
637.5,0.018
638.2,0.018
639,0.018
639.7,0.018
640.5,0.018
641.2,0.018
642,0.018
642.7,0.018
643.4,0.018
644.2,0.018
644.9,0.017
645.7,0.018
646.4,0.018
647.2,0.019
647.9,0.019
648.7,0.018
649.4,0.018
650.2,0.018
650.9,0.018
651.7,0.018
652.4,0.018
653.2,0.018
653.9,0.018
654.7,0.019
655.4,0.019
656.2,0.018
656.9,0.018
657.7,0.018
658.4,0.018
659.1,0.018
659.9,0.017
660.6,0.018
661.4,0.018
662.1,0.018
662.9,0.018
663.6,0.018
664.4,0.018
665.1,0.018
665.9,0.018
666.6,0.017
667.4,0.017
668.1,0.017
668.9,0.017
669.7,0.018
670.4,0.017
671.2,0.018
672,0.017
672.7,0.017
673.5,0.016
674.2,0.017
675,0.017
675.8,0.017
676.5,0.016
677.3,0.016
678.1,0.016
678.8,0.016
679.6,0.016
680.4,0.016
681.1,0.017
681.9,0.017
682.7,0.017
683.4,0.016
684.2,0.016
685,0.017
685.7,0.017
686.5,0.017
687.2,0.016
688,0.017
688.8,0.017
689.5,0.017
690.3,0.017
691.1,0.017
691.8,0.017
692.6,0.017
693.4,0.016
694.1,0.016
694.9,0.016
695.7,0.016
696.4,0.016
697.2,0.017
698,0.016
698.7,0.016
699.5,0.016
700.2,0.016
701,0.016
701.8,0.015
702.5,0.015
703.3,0.016
704.1,0.016
704.8,0.016
705.6,0.015
706.4,0.015
707.2,0.016
708,0.016
708.8,0.016
709.6,0.016
710.4,0.016
711.2,0.015
712.1,0.015
712.9,0.015
713.7,0.015
714.5,0.014
715.3,0.015
716.2,0.015
717,0.016
717.8,0.016
718.6,0.016
719.4,0.016
720.3,0.016
721.1,0.016
721.9,0.016
722.7,0.016
723.5,0.016
724.4,0.016
725.2,0.015
726,0.015
726.8,0.015
727.6,0.016
728.5,0.016
729.3,0.016
730.1,0.015
730.9,0.016
731.7,0.016
732.6,0.016
733.4,0.016
734.2,0.016
735,0.017
735.8,0.016
736.7,0.016
737.5,0.015
738.3,0.015
739.1,0.016
739.9,0.017
740.8,0.017
741.6,0.016
742.4,0.016
743.2,0.016
744,0.016
744.9,0.016
745.7,0.016
746.5,0.016
747.3,0.016
748.1,0.015
748.9,0.015
749.8,0.016
750.6,0.016
751.4,0.016
752.2,0.015
753,0.016
753.9,0.015
754.7,0.016
755.5,0.016
756.3,0.016
757.1,0.016
758,0.016
758.8,0.016
759.6,0.016
760.4,0.016
761.2,0.015
762.1,0.016
762.9,0.015
763.7,0.016
764.5,0.016
765.3,0.016
766.2,0.016
767,0.016
767.8,0.015
768.6,0.015
769.4,0.015
770.3,0.016
771.1,0.016
771.9,0.016
772.7,0.016
773.5,0.016
774.4,0.015
775.2,0.015
776,0.015
776.8,0.016
777.6,0.016
778.5,0.016
779.3,0.015
780.1,0.015
780.9,0.016
781.7,0.016
782.6,0.016
783.4,0.015
784.2,0.015
785,0.015
785.8,0.016
786.7,0.016
787.5,0.016
788.3,0.016
789.1,0.016
789.9,0.016
790.7,0.015
791.6,0.016
792.4,0.015
793.2,0.016
794,0.016
794.8,0.016
795.7,0.015
796.5,0.015
797.3,0.016
798.1,0.016
798.9,0.016
799.8,0.016
800.6,0.016
801.4,0.016
802.2,0.016
803,0.016
803.9,0.016
804.7,0.016
805.5,0.016
806.3,0.016
807.1,0.016
808,0.016
808.8,0.016
809.6,0.016
810.4,0.016
811.2,0.016
812.1,0.016
812.9,0.016
813.7,0.015
814.5,0.015
815.3,0.015
816.2,0.016
817,0.016
817.8,0.016
818.6,0.015
819.4,0.015
820.3,0.015
821.1,0.015
821.9,0.015
822.7,0.015
823.5,0.015
824.4,0.015
825.2,0.015
826,0.015
826.8,0.016
827.6,0.015
828.5,0.016
829.3,0.016
830.1,0.016
830.9,0.015
831.7,0.015
832.6,0.016
833.5,0.016
834.4,0.016
835.3,0.016
836.1,0.016
837,0.016
837.9,0.016
838.8,0.016
839.7,0.015
840.6,0.015
841.5,0.015
842.4,0.015
843.3,0.015
844.1,0.016
845,0.016
845.9,0.016
846.8,0.016
847.7,0.016
848.6,0.016
849.5,0.016
850.4,0.016
851.3,0.016
852.1,0.016
853,0.016
853.9,0.015
854.8,0.016
855.7,0.016
856.6,0.015
857.5,0.015
858.4,0.015
859.3,0.015
860.1,0.016
861,0.017
861.9,0.016
862.8,0.016
863.7,0.014
864.6,0.016
865.5,0.016
866.4,0.017
867.3,0.016
868.1,0.017
869,0.016
869.9,0.016
870.8,0.016
871.7,0.016
872.6,0.016
873.5,0.016
874.4,0.016
875.3,0.016
876.1,0.016
877,0.016
877.9,0.016
878.8,0.016
879.7,0.016
880.6,0.016
881.5,0.016
882.4,0.016
883.3,0.015
884.1,0.015
885,0.015
885.9,0.015
886.8,0.015
887.7,0.016
888.6,0.016
889.5,0.015
890.4,0.016
891.3,0.016
892.1,0.016
893,0.016
893.9,0.016
894.8,0.015
895.7,0.015
896.6,0.015
897.5,0.016
898.4,0.016
899.3,0.015
Vernier Format 2,
187_a3.txt 7/28/119 3:10:59,
Run 5,
Wavelength,Intensity
W,I
nm,rel
,
380.5,0.016
381.3,0.015
382.2,0.015
383,0.015
383.9,0.015
384.7,0.015
385.6,0.015
386.4,0.015
387.3,0.014
388.1,0.014
388.9,0.015
389.8,0.015
390.6,0.015
391.5,0.015
392.3,0.015
393.2,0.016
394,0.016
394.9,0.016
395.7,0.015
396.6,0.015
397.4,0.015
398.3,0.015
399.1,0.015
400,0.016
400.8,0.015
401.6,0.015
402.5,0.015
403.3,0.016
404.2,0.016
405,0.016
405.9,0.016
406.7,0.016
407.6,0.016
408.4,0.016
409.3,0.016
410.1,0.016
411,0.016
411.8,0.015
412.7,0.016
413.5,0.016
414.3,0.017
415.2,0.017
416,0.017
416.9,0.017
417.7,0.018
418.6,0.018
419.4,0.018
420.3,0.017
421.1,0.017
422,0.017
422.8,0.017
423.7,0.017
424.5,0.017
425.4,0.018
426.2,0.018
427,0.018
427.9,0.018
428.7,0.018
429.6,0.019
430.4,0.019
431.3,0.019
432.1,0.019
433,0.019
433.8,0.019
434.7,0.019
435.5,0.019
436.4,0.019
437.2,0.019
438.1,0.02
438.9,0.019
439.7,0.02
440.6,0.019
441.4,0.019
442.3,0.018
443.1,0.019
444,0.019
444.8,0.019
445.7,0.019
446.5,0.019
447.4,0.019
448.2,0.019
449.1,0.019
449.9,0.019
450.7,0.019
451.6,0.019
452.4,0.018
453.3,0.019
454.1,0.018
455,0.019
455.8,0.018
456.7,0.019
457.5,0.019
458.4,0.019
459.2,0.018
460.1,0.018
460.9,0.017
461.8,0.018
462.6,0.018
463.4,0.018
464.3,0.018
465.1,0.018
466,0.017
466.8,0.017
467.7,0.017
468.5,0.017
469.4,0.018
470.2,0.017
471.1,0.017
471.9,0.017
472.8,0.016
473.6,0.016
474.5,0.016
475.3,0.016
476.1,0.016
477,0.017
477.8,0.016
478.7,0.017
479.5,0.016
480.4,0.017
481.2,0.016
482.1,0.017
482.9,0.016
483.8,0.017
484.6,0.016
485.5,0.017
486.3,0.017
487.2,0.017
488,0.017
488.8,0.018
489.7,0.017
490.5,0.018
491.4,0.017
492.2,0.017
493.1,0.017
493.9,0.017
494.8,0.017
495.6,0.017
496.5,0.017
497.3,0.017
498.2,0.018
499,0.018
499.9,0.017
500.7,0.018
501.5,0.018
502.4,0.018
503.2,0.017
504.1,0.017
504.9,0.017
505.8,0.018
506.6,0.018
507.5,0.018
508.3,0.017
509.2,0.017
510,0.018
510.9,0.019
511.7,0.018
512.5,0.019
513.3,0.018
514.1,0.019
514.9,0.019
515.7,0.019
516.5,0.019
517.3,0.019
518,0.018
518.8,0.018
519.6,0.018
520.4,0.018
521.2,0.018
522,0.019
522.8,0.018
523.6,0.018
524.3,0.018
525.1,0.018
525.9,0.018
526.7,0.018
527.5,0.018
528.3,0.018
529.1,0.017
529.9,0.017
530.6,0.018
531.4,0.018
532.2,0.017
533,0.017
533.8,0.018
534.6,0.019
535.4,0.019
536.2,0.019
536.9,0.018
537.7,0.018
538.5,0.018
539.3,0.018
540.1,0.018
540.9,0.018
541.7,0.018
542.5,0.019
543.2,0.018
544,0.017
544.8,0.018
545.6,0.018
546.4,0.018
547.2,0.018
548,0.019
548.8,0.018
549.5,0.019
550.3,0.019
551.1,0.019
551.9,0.019
552.7,0.019
553.5,0.018
554.3,0.018
555.1,0.018
555.8,0.018
556.6,0.018
557.4,0.019
558.2,0.019
559,0.019
559.8,0.018
560.6,0.018
561.4,0.018
562.1,0.018
562.9,0.018
563.7,0.018
564.5,0.018
565.3,0.017
566.1,0.018
566.9,0.018
567.7,0.018
568.4,0.018
569.2,0.018
570,0.018
570.8,0.017
571.6,0.017
572.4,0.017
573.2,0.018
574,0.018
574.7,0.018
575.5,0.018
576.3,0.017
577.1,0.016
577.9,0.017
578.7,0.017
579.5,0.017
580.3,0.017
581,0.017
581.8,0.018
582.6,0.017
583.4,0.017
584.2,0.017
585,0.017
585.8,0.018
586.6,0.018
587.3,0.017
588.1,0.017
588.9,0.017
589.6,0.018
590.4,0.017
591.1,0.017
591.9,0.018
592.6,0.018
593.4,0.018
594.1,0.018
594.9,0.018
595.6,0.018
596.3,0.018
597.1,0.017
597.8,0.017
598.6,0.018
599.3,0.018
600.1,0.018
600.8,0.018
601.6,0.018
602.3,0.018
603.1,0.018
603.8,0.018
604.6,0.018
605.3,0.018
606.1,0.018
606.8,0.018
607.6,0.018
608.3,0.018
609.1,0.017
609.8,0.017
610.6,0.017
611.3,0.017
612,0.017
612.8,0.018
613.5,0.017
614.3,0.018
615,0.017
615.8,0.017
616.5,0.017
617.3,0.017
618,0.017
618.8,0.017
619.5,0.017
620.3,0.017
621,0.016
621.8,0.017
622.5,0.017
623.3,0.017
624,0.017
624.8,0.017
625.5,0.017
626.3,0.017
627,0.018
627.7,0.017
628.5,0.017
629.2,0.017
630,0.017
630.7,0.016
631.5,0.016
632.2,0.016
633,0.016
633.7,0.017
634.5,0.018
635.2,0.017
636,0.017
636.7,0.017
637.5,0.017
638.2,0.017
639,0.017
639.7,0.017
640.5,0.017
641.2,0.016
642,0.017
642.7,0.017
643.4,0.017
644.2,0.017
644.9,0.017
645.7,0.017
646.4,0.016
647.2,0.016
647.9,0.016
648.7,0.016
649.4,0.017
650.2,0.017
650.9,0.017
651.7,0.016
652.4,0.016
653.2,0.016
653.9,0.016
654.7,0.017
655.4,0.017
656.2,0.016
656.9,0.017
657.7,0.016
658.4,0.016
659.1,0.015
659.9,0.015
660.6,0.016
661.4,0.016
662.1,0.017
662.9,0.016
663.6,0.016
664.4,0.015
665.1,0.016
665.9,0.016
666.6,0.016
667.4,0.016
668.1,0.016
668.9,0.016
669.7,0.015
670.4,0.015
671.2,0.015
672,0.016
672.7,0.016
673.5,0.016
674.2,0.016
675,0.016
675.8,0.017
676.5,0.016
677.3,0.016
678.1,0.016
678.8,0.015
679.6,0.015
680.4,0.015
681.1,0.016
681.9,0.016
682.7,0.016
683.4,0.015
684.2,0.016
685,0.016
685.7,0.016
686.5,0.016
687.2,0.016
688,0.016
688.8,0.016
689.5,0.016
690.3,0.016
691.1,0.016
691.8,0.016
692.6,0.016
693.4,0.016
694.1,0.016
694.9,0.016
695.7,0.016
696.4,0.016
697.2,0.016
698,0.016
698.7,0.016
699.5,0.016
700.2,0.016
701,0.015
701.8,0.015
702.5,0.016
703.3,0.016
704.1,0.016
704.8,0.016
705.6,0.015
706.4,0.015
707.2,0.015
708,0.015
708.8,0.015
709.6,0.016
710.4,0.017
711.2,0.016
712.1,0.015
712.9,0.015
713.7,0.015
714.5,0.015
715.3,0.015
716.2,0.016
717,0.016
717.8,0.016
718.6,0.016
719.4,0.016
720.3,0.016
721.1,0.017
721.9,0.016
722.7,0.016
723.5,0.015
724.4,0.015
725.2,0.015
726,0.015
726.8,0.015
727.6,0.015
728.5,0.015
729.3,0.015
730.1,0.016
730.9,0.016
731.7,0.015
732.6,0.015
733.4,0.015
734.2,0.016
735,0.016
735.8,0.016
736.7,0.016
737.5,0.016
738.3,0.015
739.1,0.015
739.9,0.016
740.8,0.016
741.6,0.015
742.4,0.015
743.2,0.016
744,0.016
744.9,0.015
745.7,0.015
746.5,0.015
747.3,0.015
748.1,0.016
748.9,0.015
749.8,0.015
750.6,0.015
751.4,0.015
752.2,0.015
753,0.016
753.9,0.016
754.7,0.015
755.5,0.016
756.3,0.016
757.1,0.017
758,0.016
758.8,0.016
759.6,0.015
760.4,0.015
761.2,0.014
762.1,0.014
762.9,0.014
763.7,0.014
764.5,0.015
765.3,0.016
766.2,0.016
767,0.016
767.8,0.016
768.6,0.015
769.4,0.015
770.3,0.015
771.1,0.016
771.9,0.015
772.7,0.016
773.5,0.015
774.4,0.016
775.2,0.015
776,0.016
776.8,0.016
777.6,0.016
778.5,0.016
779.3,0.016
780.1,0.015
780.9,0.015
781.7,0.016
782.6,0.016
783.4,0.016
784.2,0.016
785,0.015
785.8,0.016
786.7,0.016
787.5,0.017
788.3,0.016
789.1,0.016
789.9,0.015
790.7,0.015
791.6,0.015
792.4,0.016
793.2,0.016
794,0.016
794.8,0.016
795.7,0.015
796.5,0.015
797.3,0.015
798.1,0.015
798.9,0.015
799.8,0.015
800.6,0.015
801.4,0.016
802.2,0.016
803,0.016
803.9,0.016
804.7,0.015
805.5,0.015
806.3,0.015
807.1,0.015
808,0.015
808.8,0.016
809.6,0.016
810.4,0.016
811.2,0.016
812.1,0.016
812.9,0.016
813.7,0.015
814.5,0.015
815.3,0.015
816.2,0.016
817,0.015
817.8,0.015
818.6,0.015
819.4,0.015
820.3,0.015
821.1,0.016
821.9,0.016
822.7,0.015
823.5,0.015
824.4,0.015
825.2,0.015
826,0.015
826.8,0.016
827.6,0.016
828.5,0.016
829.3,0.015
830.1,0.015
830.9,0.015
831.7,0.015
832.6,0.016
833.5,0.015
834.4,0.015
835.3,0.016
836.1,0.016
837,0.015
837.9,0.015
838.8,0.015
839.7,0.015
840.6,0.015
841.5,0.015
842.4,0.016
843.3,0.016
844.1,0.015
845,0.015
845.9,0.015
846.8,0.015
847.7,0.015
848.6,0.015
849.5,0.015
850.4,0.015
851.3,0.015
852.1,0.014
853,0.014
853.9,0.015
854.8,0.015
855.7,0.015
856.6,0.015
857.5,0.015
858.4,0.015
859.3,0.015
860.1,0.015
861,0.015
861.9,0.015
862.8,0.015
863.7,0.015
864.6,0.016
865.5,0.016
866.4,0.016
867.3,0.016
868.1,0.017
869,0.017
869.9,0.016
870.8,0.016
871.7,0.016
872.6,0.015
873.5,0.015
874.4,0.015
875.3,0.016
876.1,0.015
877,0.015
877.9,0.015
878.8,0.016
879.7,0.016
880.6,0.016
881.5,0.015
882.4,0.015
883.3,0.014
884.1,0.015
885,0.015
885.9,0.015
886.8,0.015
887.7,0.015
888.6,0.015
889.5,0.015
890.4,0.015
891.3,0.015
892.1,0.015
893,0.016
893.9,0.015
894.8,0.016
895.7,0.016
896.6,0.015
897.5,0.016
898.4,0.015
899.3,0.015
Vernier Format 2,
187_a3.txt 7/28/119 3:10:59,
Run 6,
Wavelength,Intensity
W,I
nm,rel
,
380.5,0.015
381.3,0.015
382.2,0.015
383,0.015
383.9,0.015
384.7,0.014
385.6,0.014
386.4,0.015
387.3,0.016
388.1,0.016
388.9,0.016
389.8,0.016
390.6,0.015
391.5,0.016
392.3,0.015
393.2,0.016
394,0.016
394.9,0.016
395.7,0.016
396.6,0.016
397.4,0.016
398.3,0.016
399.1,0.015
400,0.015
400.8,0.015
401.6,0.016
402.5,0.016
403.3,0.016
404.2,0.016
405,0.016
405.9,0.015
406.7,0.017
407.6,0.017
408.4,0.017
409.3,0.016
410.1,0.016
411,0.017
411.8,0.017
412.7,0.017
413.5,0.017
414.3,0.017
415.2,0.017
416,0.017
416.9,0.017
417.7,0.018
418.6,0.018
419.4,0.018
420.3,0.018
421.1,0.018
422,0.018
422.8,0.018
423.7,0.018
424.5,0.018
425.4,0.018
426.2,0.018
427,0.019
427.9,0.019
428.7,0.02
429.6,0.02
430.4,0.02
431.3,0.019
432.1,0.02
433,0.02
433.8,0.02
434.7,0.02
435.5,0.02
436.4,0.02
437.2,0.02
438.1,0.02
438.9,0.021
439.7,0.021
440.6,0.02
441.4,0.02
442.3,0.02
443.1,0.021
444,0.02
444.8,0.021
445.7,0.02
446.5,0.02
447.4,0.02
448.2,0.02
449.1,0.02
449.9,0.02
450.7,0.02
451.6,0.02
452.4,0.019
453.3,0.02
454.1,0.019
455,0.02
455.8,0.019
456.7,0.02
457.5,0.019
458.4,0.019
459.2,0.019
460.1,0.019
460.9,0.019
461.8,0.019
462.6,0.018
463.4,0.018
464.3,0.018
465.1,0.018
466,0.018
466.8,0.018
467.7,0.018
468.5,0.017
469.4,0.017
470.2,0.018
471.1,0.017
471.9,0.017
472.8,0.017
473.6,0.017
474.5,0.017
475.3,0.017
476.1,0.017
477,0.017
477.8,0.017
478.7,0.016
479.5,0.017
480.4,0.017
481.2,0.018
482.1,0.017
482.9,0.017
483.8,0.017
484.6,0.017
485.5,0.017
486.3,0.017
487.2,0.017
488,0.016
488.8,0.017
489.7,0.017
490.5,0.017
491.4,0.017
492.2,0.017
493.1,0.017
493.9,0.017
494.8,0.017
495.6,0.017
496.5,0.017
497.3,0.017
498.2,0.017
499,0.017
499.9,0.017
500.7,0.018
501.5,0.018
502.4,0.018
503.2,0.017
504.1,0.017
504.9,0.017
505.8,0.018
506.6,0.018
507.5,0.018
508.3,0.018
509.2,0.018
510,0.018
510.9,0.018
511.7,0.018
512.5,0.019
513.3,0.018
514.1,0.017
514.9,0.017
515.7,0.018
516.5,0.017
517.3,0.018
518,0.018
518.8,0.018
519.6,0.017
520.4,0.018
521.2,0.018
522,0.018
522.8,0.017
523.6,0.018
524.3,0.018
525.1,0.018
525.9,0.018
526.7,0.018
527.5,0.018
528.3,0.018
529.1,0.018
529.9,0.018
530.6,0.018
531.4,0.017
532.2,0.018
533,0.018
533.8,0.018
534.6,0.018
535.4,0.018
536.2,0.018
536.9,0.019
537.7,0.018
538.5,0.018
539.3,0.017
540.1,0.018
540.9,0.019
541.7,0.019
542.5,0.018
543.2,0.018
544,0.018
544.8,0.018
545.6,0.018
546.4,0.019
547.2,0.018
548,0.019
548.8,0.019
549.5,0.019
550.3,0.019
551.1,0.018
551.9,0.018
552.7,0.018
553.5,0.018
554.3,0.018
555.1,0.018
555.8,0.017
556.6,0.018
557.4,0.019
558.2,0.018
559,0.018
559.8,0.018
560.6,0.018
561.4,0.018
562.1,0.018
562.9,0.018
563.7,0.018
564.5,0.019
565.3,0.018
566.1,0.018
566.9,0.017
567.7,0.017
568.4,0.018
569.2,0.018
570,0.018
570.8,0.018
571.6,0.018
572.4,0.018
573.2,0.018
574,0.018
574.7,0.018
575.5,0.018
576.3,0.019
577.1,0.018
577.9,0.018
578.7,0.018
579.5,0.019
580.3,0.019
581,0.018
581.8,0.019
582.6,0.018
583.4,0.019
584.2,0.018
585,0.019
585.8,0.019
586.6,0.019
587.3,0.019
588.1,0.02
588.9,0.021
589.6,0.021
590.4,0.02
591.1,0.02
591.9,0.02
592.6,0.02
593.4,0.019
594.1,0.02
594.9,0.02
595.6,0.021
596.3,0.021
597.1,0.021
597.8,0.021
598.6,0.021
599.3,0.021
600.1,0.022
600.8,0.022
601.6,0.023
602.3,0.023
603.1,0.023
603.8,0.023
604.6,0.024
605.3,0.024
606.1,0.024
606.8,0.023
607.6,0.023
608.3,0.023
609.1,0.023
609.8,0.023
610.6,0.024
611.3,0.024
612,0.025
612.8,0.024
613.5,0.023
614.3,0.023
615,0.023
615.8,0.023
616.5,0.022
617.3,0.022
618,0.023
618.8,0.023
619.5,0.022
620.3,0.022
621,0.022
621.8,0.022
622.5,0.022
623.3,0.022
624,0.022
624.8,0.021
625.5,0.022
626.3,0.021
627,0.022
627.7,0.021
628.5,0.021
629.2,0.021
630,0.021
630.7,0.021
631.5,0.021
632.2,0.021
633,0.021
633.7,0.02
634.5,0.021
635.2,0.021
636,0.021
636.7,0.021
637.5,0.021
638.2,0.021
639,0.021
639.7,0.02
640.5,0.02
641.2,0.02
642,0.02
642.7,0.021
643.4,0.021
644.2,0.021
644.9,0.02
645.7,0.02
646.4,0.02
647.2,0.02
647.9,0.02
648.7,0.02
649.4,0.02
650.2,0.021
650.9,0.02
651.7,0.02
652.4,0.02
653.2,0.02
653.9,0.021
654.7,0.021
655.4,0.021
656.2,0.02
656.9,0.02
657.7,0.02
658.4,0.019
659.1,0.019
659.9,0.019
660.6,0.019
661.4,0.019
662.1,0.02
662.9,0.019
663.6,0.019
664.4,0.019
665.1,0.019
665.9,0.02
666.6,0.019
667.4,0.018
668.1,0.019
668.9,0.019
669.7,0.019
670.4,0.019
671.2,0.019
672,0.019
672.7,0.019
673.5,0.018
674.2,0.019
675,0.019
675.8,0.019
676.5,0.019
677.3,0.018
678.1,0.018
678.8,0.018
679.6,0.018
680.4,0.018
681.1,0.019
681.9,0.019
682.7,0.018
683.4,0.018
684.2,0.018
685,0.018
685.7,0.018
686.5,0.018
687.2,0.018
688,0.018
688.8,0.018
689.5,0.018
690.3,0.018
691.1,0.018
691.8,0.017
692.6,0.017
693.4,0.017
694.1,0.017
694.9,0.017
695.7,0.017
696.4,0.017
697.2,0.017
698,0.017
698.7,0.017
699.5,0.017
700.2,0.017
701,0.017
701.8,0.017
702.5,0.017
703.3,0.017
704.1,0.016
704.8,0.017
705.6,0.016
706.4,0.017
707.2,0.017
708,0.016
708.8,0.016
709.6,0.017
710.4,0.017
711.2,0.018
712.1,0.018
712.9,0.018
713.7,0.017
714.5,0.016
715.3,0.015
716.2,0.016
717,0.016
717.8,0.016
718.6,0.016
719.4,0.016
720.3,0.016
721.1,0.016
721.9,0.016
722.7,0.017
723.5,0.016
724.4,0.016
725.2,0.016
726,0.016
726.8,0.016
727.6,0.016
728.5,0.015
729.3,0.015
730.1,0.016
730.9,0.017
731.7,0.017
732.6,0.017
733.4,0.016
734.2,0.017
735,0.017
735.8,0.016
736.7,0.016
737.5,0.015
738.3,0.016
739.1,0.016
739.9,0.016
740.8,0.016
741.6,0.016
742.4,0.016
743.2,0.016
744,0.017
744.9,0.017
745.7,0.017
746.5,0.016
747.3,0.016
748.1,0.016
748.9,0.016
749.8,0.016
750.6,0.016
751.4,0.016
752.2,0.016
753,0.016
753.9,0.016
754.7,0.016
755.5,0.016
756.3,0.016
757.1,0.016
758,0.016
758.8,0.016
759.6,0.016
760.4,0.016
761.2,0.016
762.1,0.016
762.9,0.015
763.7,0.016
764.5,0.016
765.3,0.016
766.2,0.016
767,0.016
767.8,0.016
768.6,0.016
769.4,0.016
770.3,0.015
771.1,0.015
771.9,0.015
772.7,0.016
773.5,0.015
774.4,0.016
775.2,0.015
776,0.015
776.8,0.015
777.6,0.016
778.5,0.016
779.3,0.016
780.1,0.016
780.9,0.016
781.7,0.015
782.6,0.016
783.4,0.016
784.2,0.016
785,0.016
785.8,0.016
786.7,0.016
787.5,0.017
788.3,0.016
789.1,0.016
789.9,0.016
790.7,0.016
791.6,0.016
792.4,0.016
793.2,0.016
794,0.015
794.8,0.015
795.7,0.015
796.5,0.015
797.3,0.015
798.1,0.016
798.9,0.016
799.8,0.015
800.6,0.015
801.4,0.016
802.2,0.015
803,0.015
803.9,0.015
804.7,0.016
805.5,0.015
806.3,0.015
807.1,0.015
808,0.015
808.8,0.016
809.6,0.016
810.4,0.016
811.2,0.016
812.1,0.015
812.9,0.015
813.7,0.015
814.5,0.015
815.3,0.015
816.2,0.016
817,0.016
817.8,0.016
818.6,0.015
819.4,0.015
820.3,0.015
821.1,0.015
821.9,0.016
822.7,0.015
823.5,0.015
824.4,0.016
825.2,0.016
826,0.016
826.8,0.016
827.6,0.016
828.5,0.015
829.3,0.015
830.1,0.015
830.9,0.016
831.7,0.015
832.6,0.016
833.5,0.016
834.4,0.016
835.3,0.016
836.1,0.016
837,0.016
837.9,0.016
838.8,0.016
839.7,0.016
840.6,0.016
841.5,0.016
842.4,0.016
843.3,0.016
844.1,0.015
845,0.015
845.9,0.015
846.8,0.015
847.7,0.015
848.6,0.015
849.5,0.015
850.4,0.015
851.3,0.015
852.1,0.015
853,0.015
853.9,0.016
854.8,0.015
855.7,0.015
856.6,0.015
857.5,0.015
858.4,0.015
859.3,0.015
860.1,0.015
861,0.015
861.9,0.015
862.8,0.015
863.7,0.015
864.6,0.016
865.5,0.016
866.4,0.016
867.3,0.015
868.1,0.016
869,0.016
869.9,0.016
870.8,0.016
871.7,0.016
872.6,0.016
873.5,0.016
874.4,0.016
875.3,0.016
876.1,0.015
877,0.014
877.9,0.015
878.8,0.016
879.7,0.016
880.6,0.016
881.5,0.015
882.4,0.016
883.3,0.016
884.1,0.016
885,0.016
885.9,0.016
886.8,0.016
887.7,0.015
888.6,0.015
889.5,0.015
890.4,0.015
891.3,0.015
892.1,0.015
893,0.015
893.9,0.015
894.8,0.015
895.7,0.015
896.6,0.015
897.5,0.015
898.4,0.015
899.3,0.015
Vernier Format 2,
187_a3.txt 7/28/119 3:11:0,
Run 7,
Wavelength,Intensity
W,I
nm,rel
,
380.5,0.016
381.3,0.016
382.2,0.015
383,0.015
383.9,0.015
384.7,0.015
385.6,0.016
386.4,0.016
387.3,0.016
388.1,0.016
388.9,0.016
389.8,0.016
390.6,0.015
391.5,0.015
392.3,0.015
393.2,0.016
394,0.016
394.9,0.017
395.7,0.016
396.6,0.016
397.4,0.015
398.3,0.016
399.1,0.015
400,0.015
400.8,0.016
401.6,0.016
402.5,0.016
403.3,0.016
404.2,0.015
405,0.015
405.9,0.016
406.7,0.017
407.6,0.017
408.4,0.017
409.3,0.016
410.1,0.016
411,0.016
411.8,0.016
412.7,0.016
413.5,0.016
414.3,0.017
415.2,0.017
416,0.018
416.9,0.018
417.7,0.018
418.6,0.018
419.4,0.018
420.3,0.018
421.1,0.017
422,0.017
422.8,0.017
423.7,0.018
424.5,0.018
425.4,0.017
426.2,0.017
427,0.018
427.9,0.019
428.7,0.019
429.6,0.019
430.4,0.019
431.3,0.02
432.1,0.02
433,0.02
433.8,0.02
434.7,0.02
435.5,0.02
436.4,0.02
437.2,0.02
438.1,0.02
438.9,0.02
439.7,0.02
440.6,0.019
441.4,0.02
442.3,0.02
443.1,0.02
444,0.02
444.8,0.02
445.7,0.019
446.5,0.02
447.4,0.019
448.2,0.019
449.1,0.019
449.9,0.02
450.7,0.02
451.6,0.019
452.4,0.02
453.3,0.02
454.1,0.02
455,0.019
455.8,0.019
456.7,0.019
457.5,0.019
458.4,0.019
459.2,0.018
460.1,0.018
460.9,0.018
461.8,0.018
462.6,0.018
463.4,0.018
464.3,0.018
465.1,0.018
466,0.017
466.8,0.017
467.7,0.017
468.5,0.019
469.4,0.018
470.2,0.019
471.1,0.018
471.9,0.018
472.8,0.017
473.6,0.017
474.5,0.017
475.3,0.017
476.1,0.017
477,0.018
477.8,0.017
478.7,0.017
479.5,0.017
480.4,0.017
481.2,0.016
482.1,0.016
482.9,0.016
483.8,0.017
484.6,0.017
485.5,0.016
486.3,0.016
487.2,0.017
488,0.017
488.8,0.018
489.7,0.018
490.5,0.018
491.4,0.017
492.2,0.017
493.1,0.017
493.9,0.018
494.8,0.018
495.6,0.018
496.5,0.018
497.3,0.017
498.2,0.017
499,0.017
499.9,0.018
500.7,0.019
501.5,0.019
502.4,0.018
503.2,0.018
504.1,0.019
504.9,0.019
505.8,0.019
506.6,0.019
507.5,0.019
508.3,0.019
509.2,0.019
510,0.019
510.9,0.02
511.7,0.02
512.5,0.02
513.3,0.02
514.1,0.02
514.9,0.02
515.7,0.02
516.5,0.02
517.3,0.02
518,0.019
518.8,0.019
519.6,0.019
520.4,0.019
521.2,0.02
522,0.02
522.8,0.02
523.6,0.02
524.3,0.02
525.1,0.019
525.9,0.019
526.7,0.019
527.5,0.02
528.3,0.02
529.1,0.019
529.9,0.019
530.6,0.019
531.4,0.019
532.2,0.019
533,0.019
533.8,0.02
534.6,0.02
535.4,0.02
536.2,0.02
536.9,0.02
537.7,0.02
538.5,0.02
539.3,0.019
540.1,0.02
540.9,0.019
541.7,0.019
542.5,0.019
543.2,0.02
544,0.02
544.8,0.019
545.6,0.019
546.4,0.019
547.2,0.019
548,0.019
548.8,0.02
549.5,0.02
550.3,0.02
551.1,0.021
551.9,0.02
552.7,0.02
553.5,0.019
554.3,0.02
555.1,0.02
555.8,0.02
556.6,0.02
557.4,0.019
558.2,0.019
559,0.02
559.8,0.019
560.6,0.019
561.4,0.019
562.1,0.019
562.9,0.019
563.7,0.019
564.5,0.019
565.3,0.018
566.1,0.019
566.9,0.019
567.7,0.019
568.4,0.019
569.2,0.02
570,0.019
570.8,0.019
571.6,0.019
572.4,0.019
573.2,0.019
574,0.019
574.7,0.018
575.5,0.019
576.3,0.019
577.1,0.019
577.9,0.019
578.7,0.019
579.5,0.02
580.3,0.02
581,0.02
581.8,0.02
582.6,0.02
583.4,0.02
584.2,0.019
585,0.02
585.8,0.02
586.6,0.02
587.3,0.02
588.1,0.021
588.9,0.021
589.6,0.021
590.4,0.021
591.1,0.021
591.9,0.021
592.6,0.021
593.4,0.021
594.1,0.021
594.9,0.021
595.6,0.022
596.3,0.022
597.1,0.022
597.8,0.023
598.6,0.023
599.3,0.023
600.1,0.022
600.8,0.022
601.6,0.022
602.3,0.022
603.1,0.023
603.8,0.023
604.6,0.024
605.3,0.024
606.1,0.023
606.8,0.022
607.6,0.023
608.3,0.023
609.1,0.024
609.8,0.023
610.6,0.023
611.3,0.023
612,0.023
612.8,0.023
613.5,0.023
614.3,0.023
615,0.023
615.8,0.023
616.5,0.022
617.3,0.023
618,0.023
618.8,0.023
619.5,0.022
620.3,0.021
621,0.021
621.8,0.021
622.5,0.021
623.3,0.021
624,0.021
624.8,0.021
625.5,0.021
626.3,0.022
627,0.021
627.7,0.021
628.5,0.021
629.2,0.02
630,0.02
630.7,0.02
631.5,0.021
632.2,0.02
633,0.021
633.7,0.02
634.5,0.021
635.2,0.02
636,0.021
636.7,0.021
637.5,0.021
638.2,0.021
639,0.02
639.7,0.02
640.5,0.02
641.2,0.02
642,0.02
642.7,0.02
643.4,0.02
644.2,0.019
644.9,0.019
645.7,0.019
646.4,0.02
647.2,0.02
647.9,0.02
648.7,0.02
649.4,0.02
650.2,0.02
650.9,0.02
651.7,0.019
652.4,0.02
653.2,0.02
653.9,0.02
654.7,0.02
655.4,0.02
656.2,0.019
656.9,0.02
657.7,0.02
658.4,0.02
659.1,0.019
659.9,0.019
660.6,0.019
661.4,0.019
662.1,0.019
662.9,0.019
663.6,0.018
664.4,0.018
665.1,0.018
665.9,0.019
666.6,0.019
667.4,0.019
668.1,0.018
668.9,0.018
669.7,0.018
670.4,0.019
671.2,0.019
672,0.019
672.7,0.019
673.5,0.018
674.2,0.018
675,0.018
675.8,0.019
676.5,0.018
677.3,0.018
678.1,0.018
678.8,0.017
679.6,0.017
680.4,0.017
681.1,0.018
681.9,0.018
682.7,0.018
683.4,0.018
684.2,0.018
685,0.017
685.7,0.017
686.5,0.017
687.2,0.017
688,0.018
688.8,0.017
689.5,0.017
690.3,0.017
691.1,0.017
691.8,0.017
692.6,0.017
693.4,0.017
694.1,0.017
694.9,0.017
695.7,0.017
696.4,0.017
697.2,0.017
698,0.017
698.7,0.017
699.5,0.017
700.2,0.016
701,0.016
701.8,0.015
702.5,0.016
703.3,0.017
704.1,0.016
704.8,0.016
705.6,0.016
706.4,0.017
707.2,0.017
708,0.017
708.8,0.017
709.6,0.017
710.4,0.017
711.2,0.016
712.1,0.017
712.9,0.016
713.7,0.016
714.5,0.015
715.3,0.016
716.2,0.016
717,0.016
717.8,0.017
718.6,0.016
719.4,0.016
720.3,0.016
721.1,0.017
721.9,0.016
722.7,0.016
723.5,0.015
724.4,0.015
725.2,0.015
726,0.015
726.8,0.016
727.6,0.016
728.5,0.016
729.3,0.016
730.1,0.016
730.9,0.016
731.7,0.016
732.6,0.016
733.4,0.016
734.2,0.016
735,0.016
735.8,0.015
736.7,0.015
737.5,0.016
738.3,0.017
739.1,0.016
739.9,0.016
740.8,0.016
741.6,0.016
742.4,0.016
743.2,0.016
744,0.016
744.9,0.016
745.7,0.015
746.5,0.016
747.3,0.016
748.1,0.015
748.9,0.015
749.8,0.015
750.6,0.016
751.4,0.016
752.2,0.017
753,0.016
753.9,0.016
754.7,0.015
755.5,0.016
756.3,0.016
757.1,0.016
758,0.015
758.8,0.016
759.6,0.015
760.4,0.016
761.2,0.015
762.1,0.016
762.9,0.016
763.7,0.016
764.5,0.016
765.3,0.016
766.2,0.015
767,0.015
767.8,0.014
768.6,0.015
769.4,0.015
770.3,0.016
771.1,0.015
771.9,0.015
772.7,0.014
773.5,0.015
774.4,0.015
775.2,0.015
776,0.015
776.8,0.015
777.6,0.016
778.5,0.016
779.3,0.016
780.1,0.016
780.9,0.016
781.7,0.016
782.6,0.015
783.4,0.015
784.2,0.015
785,0.015
785.8,0.015
786.7,0.016
787.5,0.016
788.3,0.016
789.1,0.016
789.9,0.015
790.7,0.015
791.6,0.015
792.4,0.015
793.2,0.015
794,0.015
794.8,0.016
795.7,0.015
796.5,0.015
797.3,0.015
798.1,0.015
798.9,0.015
799.8,0.015
800.6,0.016
801.4,0.016
802.2,0.016
803,0.016
803.9,0.016
804.7,0.016
805.5,0.015
806.3,0.015
807.1,0.015
808,0.016
808.8,0.015
809.6,0.015
810.4,0.015
811.2,0.015
812.1,0.015
812.9,0.015
813.7,0.015
814.5,0.015
815.3,0.015
816.2,0.016
817,0.016
817.8,0.016
818.6,0.016
819.4,0.016
820.3,0.016
821.1,0.016
821.9,0.016
822.7,0.016
823.5,0.016
824.4,0.015
825.2,0.016
826,0.016
826.8,0.016
827.6,0.016
828.5,0.016
829.3,0.015
830.1,0.015
830.9,0.015
831.7,0.015
832.6,0.016
833.5,0.016
834.4,0.016
835.3,0.016
836.1,0.016
837,0.017
837.9,0.017
838.8,0.017
839.7,0.016
840.6,0.015
841.5,0.016
842.4,0.015
843.3,0.016
844.1,0.015
845,0.015
845.9,0.016
846.8,0.016
847.7,0.016
848.6,0.016
849.5,0.016
850.4,0.016
851.3,0.015
852.1,0.015
853,0.015
853.9,0.015
854.8,0.015
855.7,0.015
856.6,0.015
857.5,0.015
858.4,0.016
859.3,0.015
860.1,0.015
861,0.015
861.9,0.015
862.8,0.015
863.7,0.015
864.6,0.016
865.5,0.015
866.4,0.016
867.3,0.015
868.1,0.016
869,0.016
869.9,0.016
870.8,0.016
871.7,0.016
872.6,0.015
873.5,0.015
874.4,0.015
875.3,0.015
876.1,0.015
877,0.015
877.9,0.015
878.8,0.015
879.7,0.015
880.6,0.015
881.5,0.015
882.4,0.015
883.3,0.014
884.1,0.014
885,0.014
885.9,0.015
886.8,0.015
887.7,0.016
888.6,0.015
889.5,0.016
890.4,0.015
891.3,0.015
892.1,0.015
893,0.015
893.9,0.016
894.8,0.016
895.7,0.016
896.6,0.015
897.5,0.015
898.4,0.015
899.3,0.015
Vernier Format 2,
187_a3.txt 7/28/119 3:11:0,
Run 8,
Wavelength,Intensity
W,I
nm,rel
,
380.5,0.015
381.3,0.015
382.2,0.015
383,0.016
383.9,0.016
384.7,0.016
385.6,0.016
386.4,0.016
387.3,0.016
388.1,0.016
388.9,0.016
389.8,0.016
390.6,0.016
391.5,0.016
392.3,0.015
393.2,0.016
394,0.016
394.9,0.016
395.7,0.016
396.6,0.016
397.4,0.016
398.3,0.016
399.1,0.015
400,0.016
400.8,0.016
401.6,0.016
402.5,0.016
403.3,0.016
404.2,0.016
405,0.015
405.9,0.016
406.7,0.016
407.6,0.016
408.4,0.016
409.3,0.015
410.1,0.015
411,0.016
411.8,0.017
412.7,0.017
413.5,0.016
414.3,0.016
415.2,0.016
416,0.017
416.9,0.016
417.7,0.017
418.6,0.017
419.4,0.017
420.3,0.017
421.1,0.017
422,0.017
422.8,0.017
423.7,0.018
424.5,0.018
425.4,0.018
426.2,0.018
427,0.018
427.9,0.018
428.7,0.019
429.6,0.019
430.4,0.019
431.3,0.019
432.1,0.019
433,0.019
433.8,0.019
434.7,0.019
435.5,0.019
436.4,0.02
437.2,0.02
438.1,0.02
438.9,0.019
439.7,0.019
440.6,0.019
441.4,0.019
442.3,0.019
443.1,0.02
444,0.019
444.8,0.02
445.7,0.019
446.5,0.019
447.4,0.019
448.2,0.019
449.1,0.019
449.9,0.019
450.7,0.019
451.6,0.019
452.4,0.019
453.3,0.019
454.1,0.019
455,0.018
455.8,0.019
456.7,0.019
457.5,0.019
458.4,0.019
459.2,0.019
460.1,0.018
460.9,0.018
461.8,0.018
462.6,0.017
463.4,0.017
464.3,0.017
465.1,0.018
466,0.017
466.8,0.017
467.7,0.017
468.5,0.017
469.4,0.017
470.2,0.017
471.1,0.017
471.9,0.017
472.8,0.017
473.6,0.017
474.5,0.017
475.3,0.016
476.1,0.017
477,0.017
477.8,0.017
478.7,0.017
479.5,0.017
480.4,0.017
481.2,0.017
482.1,0.017
482.9,0.017
483.8,0.018
484.6,0.017
485.5,0.017
486.3,0.017
487.2,0.017
488,0.017
488.8,0.017
489.7,0.018
490.5,0.018
491.4,0.018
492.2,0.018
493.1,0.018
493.9,0.018
494.8,0.018
495.6,0.018
496.5,0.018
497.3,0.019
498.2,0.019
499,0.019
499.9,0.019
500.7,0.019
501.5,0.02
502.4,0.02
503.2,0.02
504.1,0.02
504.9,0.02
505.8,0.02
506.6,0.02
507.5,0.021
508.3,0.021
509.2,0.021
510,0.021
510.9,0.022
511.7,0.021
512.5,0.021
513.3,0.021
514.1,0.022
514.9,0.023
515.7,0.023
516.5,0.023
517.3,0.022
518,0.022
518.8,0.022
519.6,0.022
520.4,0.022
521.2,0.022
522,0.022
522.8,0.022
523.6,0.023
524.3,0.023
525.1,0.022
525.9,0.022
526.7,0.022
527.5,0.023
528.3,0.023
529.1,0.022
529.9,0.022
530.6,0.022
531.4,0.022
532.2,0.022
533,0.022
533.8,0.022
534.6,0.022
535.4,0.021
536.2,0.022
536.9,0.022
537.7,0.022
538.5,0.021
539.3,0.021
540.1,0.021
540.9,0.022
541.7,0.022
542.5,0.022
543.2,0.022
544,0.022
544.8,0.023
545.6,0.023
546.4,0.023
547.2,0.023
548,0.023
548.8,0.023
549.5,0.023
550.3,0.023
551.1,0.023
551.9,0.023
552.7,0.022
553.5,0.022
554.3,0.023
555.1,0.023
555.8,0.023
556.6,0.022
557.4,0.022
558.2,0.022
559,0.022
559.8,0.022
560.6,0.021
561.4,0.021
562.1,0.022
562.9,0.022
563.7,0.022
564.5,0.022
565.3,0.022
566.1,0.022
566.9,0.022
567.7,0.021
568.4,0.022
569.2,0.022
570,0.022
570.8,0.021
571.6,0.021
572.4,0.021
573.2,0.021
574,0.021
574.7,0.021
575.5,0.022
576.3,0.022
577.1,0.022
577.9,0.022
578.7,0.021
579.5,0.021
580.3,0.022
581,0.021
581.8,0.022
582.6,0.021
583.4,0.021
584.2,0.021
585,0.022
585.8,0.021
586.6,0.022
587.3,0.021
588.1,0.022
588.9,0.023
589.6,0.023
590.4,0.023
591.1,0.023
591.9,0.023
592.6,0.023
593.4,0.023
594.1,0.023
594.9,0.024
595.6,0.024
596.3,0.024
597.1,0.023
597.8,0.024
598.6,0.024
599.3,0.025
600.1,0.025
600.8,0.025
601.6,0.025
602.3,0.025
603.1,0.025
603.8,0.024
604.6,0.025
605.3,0.025
606.1,0.026
606.8,0.025
607.6,0.026
608.3,0.025
609.1,0.025
609.8,0.024
610.6,0.025
611.3,0.025
612,0.025
612.8,0.025
613.5,0.024
614.3,0.025
615,0.025
615.8,0.025
616.5,0.024
617.3,0.023
618,0.023
618.8,0.023
619.5,0.023
620.3,0.023
621,0.023
621.8,0.023
622.5,0.023
623.3,0.023
624,0.023
624.8,0.022
625.5,0.022
626.3,0.022
627,0.022
627.7,0.022
628.5,0.022
629.2,0.022
630,0.022
630.7,0.022
631.5,0.022
632.2,0.021
633,0.022
633.7,0.022
634.5,0.022
635.2,0.022
636,0.022
636.7,0.021
637.5,0.021
638.2,0.021
639,0.022
639.7,0.022
640.5,0.021
641.2,0.021
642,0.021
642.7,0.021
643.4,0.021
644.2,0.021
644.9,0.021
645.7,0.021
646.4,0.021
647.2,0.021
647.9,0.021
648.7,0.02
649.4,0.021
650.2,0.021
650.9,0.021
651.7,0.021
652.4,0.021
653.2,0.021
653.9,0.021
654.7,0.021
655.4,0.02
656.2,0.02
656.9,0.02
657.7,0.02
658.4,0.02
659.1,0.019
659.9,0.02
660.6,0.02
661.4,0.021
662.1,0.02
662.9,0.02
663.6,0.019
664.4,0.019
665.1,0.019
665.9,0.019
666.6,0.019
667.4,0.019
668.1,0.019
668.9,0.019
669.7,0.019
670.4,0.019
671.2,0.019
672,0.019
672.7,0.018
673.5,0.018
674.2,0.018
675,0.019
675.8,0.019
676.5,0.019
677.3,0.018
678.1,0.018
678.8,0.018
679.6,0.019
680.4,0.018
681.1,0.018
681.9,0.019
682.7,0.018
683.4,0.019
684.2,0.018
685,0.018
685.7,0.018
686.5,0.018
687.2,0.017
688,0.017
688.8,0.017
689.5,0.018
690.3,0.018
691.1,0.018
691.8,0.018
692.6,0.017
693.4,0.017
694.1,0.017
694.9,0.017
695.7,0.018
696.4,0.018
697.2,0.017
698,0.017
698.7,0.016
699.5,0.017
700.2,0.017
701,0.017
701.8,0.017
702.5,0.017
703.3,0.017
704.1,0.016
704.8,0.016
705.6,0.015
706.4,0.016
707.2,0.017
708,0.016
708.8,0.016
709.6,0.016
710.4,0.016
711.2,0.016
712.1,0.016
712.9,0.016
713.7,0.016
714.5,0.016
715.3,0.017
716.2,0.016
717,0.016
717.8,0.017
718.6,0.017
719.4,0.017
720.3,0.016
721.1,0.017
721.9,0.017
722.7,0.016
723.5,0.016
724.4,0.015
725.2,0.015
726,0.015
726.8,0.015
727.6,0.016
728.5,0.016
729.3,0.016
730.1,0.016
730.9,0.016
731.7,0.015
732.6,0.015
733.4,0.015
734.2,0.016
735,0.017
735.8,0.016
736.7,0.016
737.5,0.016
738.3,0.015
739.1,0.016
739.9,0.016
740.8,0.016
741.6,0.015
742.4,0.016
743.2,0.016
744,0.017
744.9,0.016
745.7,0.016
746.5,0.016
747.3,0.016
748.1,0.017
748.9,0.017
749.8,0.016
750.6,0.015
751.4,0.015
752.2,0.015
753,0.016
753.9,0.016
754.7,0.016
755.5,0.015
756.3,0.015
757.1,0.015
758,0.016
758.8,0.016
759.6,0.016
760.4,0.016
761.2,0.015
762.1,0.015
762.9,0.015
763.7,0.016
764.5,0.016
765.3,0.016
766.2,0.016
767,0.016
767.8,0.017
768.6,0.017
769.4,0.016
770.3,0.015
771.1,0.015
771.9,0.015
772.7,0.015
773.5,0.015
774.4,0.015
775.2,0.015
776,0.015
776.8,0.016
777.6,0.017
778.5,0.016
779.3,0.016
780.1,0.016
780.9,0.016
781.7,0.015
782.6,0.015
783.4,0.015
784.2,0.015
785,0.015
785.8,0.015
786.7,0.016
787.5,0.016
788.3,0.016
789.1,0.016
789.9,0.015
790.7,0.016
791.6,0.016
792.4,0.016
793.2,0.016
794,0.016
794.8,0.016
795.7,0.015
796.5,0.015
797.3,0.015
798.1,0.015
798.9,0.015
799.8,0.015
800.6,0.016
801.4,0.016
802.2,0.015
803,0.015
803.9,0.016
804.7,0.015
805.5,0.015
806.3,0.015
807.1,0.015
808,0.015
808.8,0.016
809.6,0.016
810.4,0.016
811.2,0.016
812.1,0.016
812.9,0.016
813.7,0.016
814.5,0.016
815.3,0.015
816.2,0.015
817,0.015
817.8,0.015
818.6,0.016
819.4,0.016
820.3,0.016
821.1,0.016
821.9,0.016
822.7,0.016
823.5,0.016
824.4,0.016
825.2,0.016
826,0.016
826.8,0.016
827.6,0.016
828.5,0.016
829.3,0.015
830.1,0.016
830.9,0.016
831.7,0.015
832.6,0.016
833.5,0.016
834.4,0.016
835.3,0.016
836.1,0.017
837,0.017
837.9,0.016
838.8,0.016
839.7,0.015
840.6,0.016
841.5,0.016
842.4,0.016
843.3,0.015
844.1,0.015
845,0.015
845.9,0.015
846.8,0.015
847.7,0.015
848.6,0.015
849.5,0.015
850.4,0.015
851.3,0.016
852.1,0.016
853,0.015
853.9,0.015
854.8,0.016
855.7,0.016
856.6,0.015
857.5,0.014
858.4,0.015
859.3,0.015
860.1,0.016
861,0.015
861.9,0.015
862.8,0.015
863.7,0.015
864.6,0.016
865.5,0.016
866.4,0.016
867.3,0.016
868.1,0.016
869,0.015
869.9,0.016
870.8,0.016
871.7,0.016
872.6,0.016
873.5,0.015
874.4,0.015
875.3,0.015
876.1,0.015
877,0.015
877.9,0.015
878.8,0.015
879.7,0.015
880.6,0.015
881.5,0.016
882.4,0.016
883.3,0.015
884.1,0.015
885,0.015
885.9,0.015
886.8,0.016
887.7,0.016
888.6,0.016
889.5,0.015
890.4,0.015
891.3,0.015
892.1,0.015
893,0.015
893.9,0.015
894.8,0.016
895.7,0.016
896.6,0.016
897.5,0.015
898.4,0.015
899.3,0.015
Vernier Format 2,
187_a3.txt 7/28/119 3:11:0,
Run 9,
Wavelength,Intensity
W,I
nm,rel
,
380.5,0.016
381.3,0.016
382.2,0.016
383,0.016
383.9,0.016
384.7,0.016
385.6,0.016
386.4,0.016
387.3,0.016
388.1,0.016
388.9,0.016
389.8,0.016
390.6,0.016
391.5,0.016
392.3,0.016
393.2,0.016
394,0.016
394.9,0.016
395.7,0.016
396.6,0.017
397.4,0.016
398.3,0.016
399.1,0.016
400,0.017
400.8,0.016
401.6,0.016
402.5,0.016
403.3,0.017
404.2,0.017
405,0.017
405.9,0.017
406.7,0.018
407.6,0.018
408.4,0.018
409.3,0.017
410.1,0.018
411,0.018
411.8,0.018
412.7,0.018
413.5,0.018
414.3,0.018
415.2,0.018
416,0.019
416.9,0.019
417.7,0.019
418.6,0.02
419.4,0.02
420.3,0.02
421.1,0.02
422,0.02
422.8,0.019
423.7,0.02
424.5,0.02
425.4,0.02
426.2,0.021
427,0.021
427.9,0.021
428.7,0.021
429.6,0.022
430.4,0.022
431.3,0.022
432.1,0.023
433,0.023
433.8,0.023
434.7,0.023
435.5,0.023
436.4,0.024
437.2,0.023
438.1,0.024
438.9,0.023
439.7,0.024
440.6,0.023
441.4,0.023
442.3,0.023
443.1,0.024
444,0.024
444.8,0.024
445.7,0.024
446.5,0.024
447.4,0.024
448.2,0.024
449.1,0.024
449.9,0.024
450.7,0.023
451.6,0.023
452.4,0.023
453.3,0.023
454.1,0.023
455,0.022
455.8,0.022
456.7,0.022
457.5,0.022
458.4,0.021
459.2,0.021
460.1,0.021
460.9,0.021
461.8,0.021
462.6,0.021
463.4,0.02
464.3,0.02
465.1,0.02
466,0.02
466.8,0.02
467.7,0.02
468.5,0.02
469.4,0.02
470.2,0.02
471.1,0.02
471.9,0.019
472.8,0.02
473.6,0.02
474.5,0.019
475.3,0.019
476.1,0.019
477,0.019
477.8,0.019
478.7,0.019
479.5,0.02
480.4,0.019
481.2,0.019
482.1,0.018
482.9,0.018
483.8,0.019
484.6,0.019
485.5,0.019
486.3,0.018
487.2,0.019
488,0.019
488.8,0.019
489.7,0.02
490.5,0.02
491.4,0.02
492.2,0.02
493.1,0.02
493.9,0.02
494.8,0.02
495.6,0.02
496.5,0.021
497.3,0.021
498.2,0.021
499,0.02
499.9,0.02
500.7,0.021
501.5,0.021
502.4,0.021
503.2,0.021
504.1,0.022
504.9,0.022
505.8,0.022
506.6,0.022
507.5,0.022
508.3,0.022
509.2,0.022
510,0.023
510.9,0.023
511.7,0.023
512.5,0.023
513.3,0.023
514.1,0.023
514.9,0.023
515.7,0.023
516.5,0.023
517.3,0.024
518,0.024
518.8,0.024
519.6,0.024
520.4,0.023
521.2,0.023
522,0.022
522.8,0.022
523.6,0.023
524.3,0.023
525.1,0.023
525.9,0.023
526.7,0.023
527.5,0.023
528.3,0.023
529.1,0.022
529.9,0.022
530.6,0.022
531.4,0.022
532.2,0.023
533,0.022
533.8,0.022
534.6,0.022
535.4,0.022
536.2,0.023
536.9,0.023
537.7,0.023
538.5,0.022
539.3,0.022
540.1,0.023
540.9,0.023
541.7,0.023
542.5,0.023
543.2,0.023
544,0.022
544.8,0.023
545.6,0.023
546.4,0.023
547.2,0.022
548,0.022
548.8,0.022
549.5,0.022
550.3,0.022
551.1,0.023
551.9,0.023
552.7,0.022
553.5,0.022
554.3,0.022
555.1,0.022
555.8,0.022
556.6,0.022
557.4,0.023
558.2,0.022
559,0.022
559.8,0.021
560.6,0.02
561.4,0.02
562.1,0.021
562.9,0.021
563.7,0.022
564.5,0.021
565.3,0.021
566.1,0.021
566.9,0.021
567.7,0.02
568.4,0.02
569.2,0.021
570,0.021
570.8,0.02
571.6,0.02
572.4,0.019
573.2,0.02
574,0.021
574.7,0.02
575.5,0.02
576.3,0.02
577.1,0.02
577.9,0.019
578.7,0.019
579.5,0.019
580.3,0.02
581,0.02
581.8,0.02
582.6,0.019
583.4,0.02
584.2,0.02
585,0.02
585.8,0.02
586.6,0.02
587.3,0.02
588.1,0.02
588.9,0.021
589.6,0.021
590.4,0.02
591.1,0.02
591.9,0.02
592.6,0.02
593.4,0.02
594.1,0.02
594.9,0.02
595.6,0.02
596.3,0.02
597.1,0.02
597.8,0.02
598.6,0.02
599.3,0.02
600.1,0.021
600.8,0.021
601.6,0.02
602.3,0.02
603.1,0.02
603.8,0.02
604.6,0.02
605.3,0.019
606.1,0.02
606.8,0.02
607.6,0.021
608.3,0.02
609.1,0.02
609.8,0.02
610.6,0.02
611.3,0.019
612,0.019
612.8,0.019
613.5,0.019
614.3,0.02
615,0.02
615.8,0.02
616.5,0.019
617.3,0.019
618,0.019
618.8,0.018
619.5,0.018
620.3,0.018
621,0.018
621.8,0.018
622.5,0.019
623.3,0.018
624,0.018
624.8,0.018
625.5,0.019
626.3,0.019
627,0.019
627.7,0.018
628.5,0.018
629.2,0.019
630,0.019
630.7,0.018
631.5,0.018
632.2,0.018
633,0.018
633.7,0.018
634.5,0.018
635.2,0.018
636,0.018
636.7,0.017
637.5,0.018
638.2,0.018
639,0.018
639.7,0.018
640.5,0.017
641.2,0.018
642,0.018
642.7,0.018
643.4,0.018
644.2,0.018
644.9,0.017
645.7,0.018
646.4,0.018
647.2,0.018
647.9,0.017
648.7,0.017
649.4,0.018
650.2,0.018
650.9,0.018
651.7,0.018
652.4,0.018
653.2,0.018
653.9,0.018
654.7,0.018
655.4,0.018
656.2,0.018
656.9,0.018
657.7,0.018
658.4,0.017
659.1,0.017
659.9,0.017
660.6,0.018
661.4,0.018
662.1,0.018
662.9,0.017
663.6,0.018
664.4,0.017
665.1,0.017
665.9,0.017
666.6,0.018
667.4,0.018
668.1,0.018
668.9,0.017
669.7,0.017
670.4,0.017
671.2,0.017
672,0.018
672.7,0.018
673.5,0.017
674.2,0.018
675,0.018
675.8,0.018
676.5,0.017
677.3,0.016
678.1,0.017
678.8,0.016
679.6,0.016
680.4,0.017
681.1,0.018
681.9,0.018
682.7,0.018
683.4,0.017
684.2,0.017
685,0.016
685.7,0.016
686.5,0.016
687.2,0.016
688,0.017
688.8,0.017
689.5,0.017
690.3,0.016
691.1,0.016
691.8,0.016
692.6,0.017
693.4,0.017
694.1,0.016
694.9,0.016
695.7,0.016
696.4,0.016
697.2,0.016
698,0.016
698.7,0.016
699.5,0.016
700.2,0.016
701,0.016
701.8,0.015
702.5,0.015
703.3,0.016
704.1,0.016
704.8,0.016
705.6,0.016
706.4,0.016
707.2,0.016
708,0.016
708.8,0.016
709.6,0.016
710.4,0.016
711.2,0.016
712.1,0.016
712.9,0.016
713.7,0.016
714.5,0.016
715.3,0.016
716.2,0.016
717,0.016
717.8,0.016
718.6,0.016
719.4,0.016
720.3,0.016
721.1,0.017
721.9,0.017
722.7,0.017
723.5,0.016
724.4,0.015
725.2,0.015
726,0.015
726.8,0.016
727.6,0.016
728.5,0.016
729.3,0.016
730.1,0.016
730.9,0.017
731.7,0.016
732.6,0.016
733.4,0.016
734.2,0.016
735,0.017
735.8,0.016
736.7,0.016
737.5,0.016
738.3,0.016
739.1,0.016
739.9,0.016
740.8,0.016
741.6,0.015
742.4,0.016
743.2,0.017
744,0.017
744.9,0.016
745.7,0.016
746.5,0.016
747.3,0.016
748.1,0.016
748.9,0.016
749.8,0.016
750.6,0.016
751.4,0.017
752.2,0.017
753,0.016
753.9,0.016
754.7,0.016
755.5,0.016
756.3,0.017
757.1,0.017
758,0.017
758.8,0.016
759.6,0.015
760.4,0.016
761.2,0.016
762.1,0.016
762.9,0.016
763.7,0.016
764.5,0.016
765.3,0.016
766.2,0.016
767,0.016
767.8,0.016
768.6,0.016
769.4,0.016
770.3,0.016
771.1,0.016
771.9,0.016
772.7,0.016
773.5,0.015
774.4,0.016
775.2,0.015
776,0.016
776.8,0.016
777.6,0.017
778.5,0.017
779.3,0.017
780.1,0.016
780.9,0.016
781.7,0.016
782.6,0.016
783.4,0.016
784.2,0.016
785,0.016
785.8,0.017
786.7,0.016
787.5,0.017
788.3,0.016
789.1,0.017
789.9,0.016
790.7,0.016
791.6,0.015
792.4,0.015
793.2,0.016
794,0.016
794.8,0.016
795.7,0.017
796.5,0.016
797.3,0.016
798.1,0.015
798.9,0.016
799.8,0.016
800.6,0.016
801.4,0.016
802.2,0.015
803,0.015
803.9,0.015
804.7,0.016
805.5,0.016
806.3,0.016
807.1,0.016
808,0.016
808.8,0.016
809.6,0.016
810.4,0.015
811.2,0.015
812.1,0.016
812.9,0.016
813.7,0.016
814.5,0.016
815.3,0.015
816.2,0.016
817,0.016
817.8,0.017
818.6,0.016
819.4,0.016
820.3,0.015
821.1,0.015
821.9,0.016
822.7,0.016
823.5,0.016
824.4,0.016
825.2,0.016
826,0.016
826.8,0.016
827.6,0.016
828.5,0.016
829.3,0.017
830.1,0.016
830.9,0.016
831.7,0.015
832.6,0.016
833.5,0.016
834.4,0.016
835.3,0.017
836.1,0.016
837,0.016
837.9,0.016
838.8,0.016
839.7,0.016
840.6,0.016
841.5,0.016
842.4,0.015
843.3,0.016
844.1,0.016
845,0.017
845.9,0.017
846.8,0.015
847.7,0.015
848.6,0.015
849.5,0.015
850.4,0.016
851.3,0.016
852.1,0.016
853,0.016
853.9,0.016
854.8,0.016
855.7,0.016
856.6,0.016
857.5,0.015
858.4,0.016
859.3,0.016
860.1,0.016
861,0.015
861.9,0.014
862.8,0.015
863.7,0.016
864.6,0.017
865.5,0.016
866.4,0.016
867.3,0.016
868.1,0.016
869,0.017
869.9,0.017
870.8,0.017
871.7,0.016
872.6,0.016
873.5,0.015
874.4,0.015
875.3,0.016
876.1,0.016
877,0.016
877.9,0.016
878.8,0.016
879.7,0.016
880.6,0.017
881.5,0.016
882.4,0.016
883.3,0.015
884.1,0.015
885,0.015
885.9,0.016
886.8,0.016
887.7,0.015
888.6,0.016
889.5,0.015
890.4,0.015
891.3,0.016
892.1,0.016
893,0.016
893.9,0.016
894.8,0.016
895.7,0.016
896.6,0.016
897.5,0.015
898.4,0.016
899.3,0.016
Vernier Format 2,
187_a3.txt 7/28/119 3:11:0,
Run 10,
Wavelength,Intensity
W,I
nm,rel
,
380.5,0.016
381.3,0.016
382.2,0.016
383,0.016
383.9,0.016
384.7,0.016
385.6,0.016
386.4,0.016
387.3,0.016
388.1,0.016
388.9,0.016
389.8,0.016
390.6,0.016
391.5,0.016
392.3,0.016
393.2,0.016
394,0.016
394.9,0.015
395.7,0.016
396.6,0.016
397.4,0.016
398.3,0.016
399.1,0.016
400,0.016
400.8,0.017
401.6,0.017
402.5,0.017
403.3,0.016
404.2,0.016
405,0.016
405.9,0.016
406.7,0.017
407.6,0.017
408.4,0.017
409.3,0.017
410.1,0.016
411,0.017
411.8,0.017
412.7,0.017
413.5,0.017
414.3,0.017
415.2,0.018
416,0.018
416.9,0.019
417.7,0.019
418.6,0.019
419.4,0.019
420.3,0.019
421.1,0.019
422,0.02
422.8,0.019
423.7,0.02
424.5,0.02
425.4,0.021
426.2,0.02
427,0.02
427.9,0.021
428.7,0.021
429.6,0.021
430.4,0.021
431.3,0.021
432.1,0.022
433,0.022
433.8,0.022
434.7,0.022
435.5,0.023
436.4,0.023
437.2,0.023
438.1,0.023
438.9,0.023
439.7,0.023
440.6,0.023
441.4,0.023
442.3,0.023
443.1,0.023
444,0.023
444.8,0.023
445.7,0.023
446.5,0.023
447.4,0.022
448.2,0.022
449.1,0.022
449.9,0.023
450.7,0.023
451.6,0.022
452.4,0.022
453.3,0.022
454.1,0.022
455,0.022
455.8,0.022
456.7,0.022
457.5,0.022
458.4,0.022
459.2,0.021
460.1,0.019
460.9,0.019
461.8,0.019
462.6,0.02
463.4,0.019
464.3,0.02
465.1,0.02
466,0.019
466.8,0.019
467.7,0.019
468.5,0.019
469.4,0.019
470.2,0.019
471.1,0.019
471.9,0.018
472.8,0.018
473.6,0.018
474.5,0.018
475.3,0.018
476.1,0.018
477,0.018
477.8,0.018
478.7,0.018
479.5,0.017
480.4,0.017
481.2,0.017
482.1,0.017
482.9,0.017
483.8,0.018
484.6,0.018
485.5,0.018
486.3,0.018
487.2,0.018
488,0.018
488.8,0.018
489.7,0.019
490.5,0.019
491.4,0.019
492.2,0.019
493.1,0.019
493.9,0.019
494.8,0.019
495.6,0.019
496.5,0.019
497.3,0.019
498.2,0.019
499,0.019
499.9,0.019
500.7,0.019
501.5,0.018
502.4,0.019
503.2,0.019
504.1,0.02
504.9,0.02
505.8,0.02
506.6,0.019
507.5,0.02
508.3,0.019
509.2,0.02
510,0.02
510.9,0.021
511.7,0.02
512.5,0.02
513.3,0.02
514.1,0.02
514.9,0.021
515.7,0.021
516.5,0.021
517.3,0.02
518,0.02
518.8,0.02
519.6,0.02
520.4,0.02
521.2,0.02
522,0.02
522.8,0.02
523.6,0.02
524.3,0.02
525.1,0.021
525.9,0.02
526.7,0.021
527.5,0.021
528.3,0.021
529.1,0.02
529.9,0.02
530.6,0.02
531.4,0.021
532.2,0.02
533,0.02
533.8,0.02
534.6,0.02
535.4,0.02
536.2,0.02
536.9,0.02
537.7,0.02
538.5,0.02
539.3,0.02
540.1,0.02
540.9,0.02
541.7,0.02
542.5,0.02
543.2,0.021
544,0.02
544.8,0.021
545.6,0.021
546.4,0.021
547.2,0.021
548,0.02
548.8,0.02
549.5,0.02
550.3,0.021
551.1,0.021
551.9,0.021
552.7,0.021
553.5,0.02
554.3,0.021
555.1,0.02
555.8,0.021
556.6,0.021
557.4,0.021
558.2,0.021
559,0.021
559.8,0.02
560.6,0.021
561.4,0.021
562.1,0.02
562.9,0.02
563.7,0.02
564.5,0.02
565.3,0.019
566.1,0.02
566.9,0.02
567.7,0.02
568.4,0.02
569.2,0.02
570,0.02
570.8,0.019
571.6,0.019
572.4,0.02
573.2,0.019
574,0.02
574.7,0.02
575.5,0.02
576.3,0.02
577.1,0.02
577.9,0.02
578.7,0.02
579.5,0.02
580.3,0.02
581,0.02
581.8,0.02
582.6,0.02
583.4,0.02
584.2,0.02
585,0.02
585.8,0.02
586.6,0.02
587.3,0.02
588.1,0.021
588.9,0.022
589.6,0.022
590.4,0.022
591.1,0.022
591.9,0.022
592.6,0.022
593.4,0.021
594.1,0.021
594.9,0.022
595.6,0.023
596.3,0.023
597.1,0.023
597.8,0.023
598.6,0.023
599.3,0.023
600.1,0.024
600.8,0.024
601.6,0.024
602.3,0.024
603.1,0.023
603.8,0.023
604.6,0.024
605.3,0.024
606.1,0.024
606.8,0.024
607.6,0.024
608.3,0.024
609.1,0.024
609.8,0.023
610.6,0.023
611.3,0.023
612,0.024
612.8,0.023
613.5,0.023
614.3,0.023
615,0.023
615.8,0.023
616.5,0.023
617.3,0.023
618,0.023
618.8,0.022
619.5,0.022
620.3,0.022
621,0.022
621.8,0.022
622.5,0.023
623.3,0.022
624,0.022
624.8,0.022
625.5,0.022
626.3,0.021
627,0.021
627.7,0.021
628.5,0.021
629.2,0.02
630,0.02
630.7,0.02
631.5,0.02
632.2,0.02
633,0.021
633.7,0.021
634.5,0.022
635.2,0.021
636,0.022
636.7,0.02
637.5,0.021
638.2,0.021
639,0.021
639.7,0.021
640.5,0.02
641.2,0.021
642,0.02
642.7,0.02
643.4,0.021
644.2,0.02
644.9,0.02
645.7,0.019
646.4,0.02
647.2,0.02
647.9,0.021
648.7,0.021
649.4,0.021
650.2,0.02
650.9,0.02
651.7,0.02
652.4,0.021
653.2,0.02
653.9,0.02
654.7,0.02
655.4,0.02
656.2,0.019
656.9,0.019
657.7,0.019
658.4,0.019
659.1,0.019
659.9,0.019
660.6,0.02
661.4,0.02
662.1,0.02
662.9,0.019
663.6,0.019
664.4,0.018
665.1,0.018
665.9,0.019
666.6,0.019
667.4,0.018
668.1,0.019
668.9,0.018
669.7,0.019
670.4,0.019
671.2,0.019
672,0.019
672.7,0.019
673.5,0.018
674.2,0.019
675,0.019
675.8,0.019
676.5,0.018
677.3,0.018
678.1,0.018
678.8,0.018
679.6,0.018
680.4,0.018
681.1,0.018
681.9,0.018
682.7,0.018
683.4,0.018
684.2,0.018
685,0.018
685.7,0.018
686.5,0.017
687.2,0.018
688,0.018
688.8,0.019
689.5,0.018
690.3,0.017
691.1,0.017
691.8,0.017
692.6,0.017
693.4,0.017
694.1,0.016
694.9,0.016
695.7,0.016
696.4,0.016
697.2,0.017
698,0.017
698.7,0.018
699.5,0.017
700.2,0.017
701,0.017
701.8,0.018
702.5,0.017
703.3,0.017
704.1,0.017
704.8,0.017
705.6,0.016
706.4,0.016
707.2,0.016
708,0.017
708.8,0.017
709.6,0.017
710.4,0.017
711.2,0.017
712.1,0.017
712.9,0.016
713.7,0.016
714.5,0.016
715.3,0.016
716.2,0.017
717,0.016
717.8,0.016
718.6,0.016
719.4,0.016
720.3,0.016
721.1,0.016
721.9,0.016
722.7,0.016
723.5,0.016
724.4,0.016
725.2,0.017
726,0.016
726.8,0.016
727.6,0.016
728.5,0.015
729.3,0.016
730.1,0.016
730.9,0.017
731.7,0.016
732.6,0.016
733.4,0.015
734.2,0.016
735,0.017
735.8,0.016
736.7,0.016
737.5,0.016
738.3,0.016
739.1,0.016
739.9,0.016
740.8,0.016
741.6,0.016
742.4,0.016
743.2,0.017
744,0.016
744.9,0.016
745.7,0.015
746.5,0.016
747.3,0.016
748.1,0.016
748.9,0.016
749.8,0.016
750.6,0.017
751.4,0.017
752.2,0.016
753,0.016
753.9,0.016
754.7,0.015
755.5,0.015
756.3,0.015
757.1,0.016
758,0.015
758.8,0.016
759.6,0.015
760.4,0.016
761.2,0.015
762.1,0.015
762.9,0.015
763.7,0.015
764.5,0.015
765.3,0.016
766.2,0.016
767,0.016
767.8,0.016
768.6,0.016
769.4,0.016
770.3,0.016
771.1,0.016
771.9,0.016
772.7,0.016
773.5,0.016
774.4,0.017
775.2,0.016
776,0.016
776.8,0.016
777.6,0.016
778.5,0.016
779.3,0.016
780.1,0.015
780.9,0.015
781.7,0.016
782.6,0.016
783.4,0.016
784.2,0.016
785,0.015
785.8,0.016
786.7,0.016
787.5,0.017
788.3,0.017
789.1,0.017
789.9,0.015
790.7,0.015
791.6,0.015
792.4,0.015
793.2,0.016
794,0.016
794.8,0.016
795.7,0.016
796.5,0.016
797.3,0.016
798.1,0.016
798.9,0.016
799.8,0.016
800.6,0.016
801.4,0.017
802.2,0.016
803,0.016
803.9,0.016
804.7,0.015
805.5,0.014
806.3,0.015
807.1,0.015
808,0.015
808.8,0.015
809.6,0.015
810.4,0.015
811.2,0.015
812.1,0.016
812.9,0.016
813.7,0.015
814.5,0.015
815.3,0.015
816.2,0.016
817,0.016
817.8,0.016
818.6,0.016
819.4,0.017
820.3,0.016
821.1,0.016
821.9,0.015
822.7,0.015
823.5,0.015
824.4,0.015
825.2,0.016
826,0.017
826.8,0.016
827.6,0.016
828.5,0.015
829.3,0.016
830.1,0.016
830.9,0.016
831.7,0.016
832.6,0.016
833.5,0.016
834.4,0.016
835.3,0.016
836.1,0.016
837,0.016
837.9,0.016
838.8,0.016
839.7,0.015
840.6,0.015
841.5,0.015
842.4,0.015
843.3,0.015
844.1,0.015
845,0.015
845.9,0.016
846.8,0.016
847.7,0.016
848.6,0.015
849.5,0.015
850.4,0.016
851.3,0.016
852.1,0.016
853,0.016
853.9,0.015
854.8,0.015
855.7,0.015
856.6,0.015
857.5,0.015
858.4,0.016
859.3,0.016
860.1,0.016
861,0.016
861.9,0.015
862.8,0.015
863.7,0.015
864.6,0.016
865.5,0.016
866.4,0.016
867.3,0.016
868.1,0.016
869,0.016
869.9,0.015
870.8,0.015
871.7,0.015
872.6,0.015
873.5,0.015
874.4,0.015
875.3,0.015
876.1,0.015
877,0.014
877.9,0.014
878.8,0.015
879.7,0.015
880.6,0.015
881.5,0.015
882.4,0.016
883.3,0.016
884.1,0.016
885,0.015
885.9,0.015
886.8,0.015
887.7,0.016
888.6,0.016
889.5,0.015
890.4,0.015
891.3,0.016
892.1,0.015
893,0.016
893.9,0.016
894.8,0.016
895.7,0.016
896.6,0.016
897.5,0.016
898.4,0.016
899.3,0.016
Vernier Format 2,
187_a3.txt 7/28/119 3:11:0,
Run 11,
Wavelength,Intensity
W,I
nm,rel
,
380.5,0.016
381.3,0.016
382.2,0.016
383,0.016
383.9,0.016
384.7,0.016
385.6,0.016
386.4,0.016
387.3,0.016
388.1,0.016
388.9,0.016
389.8,0.016
390.6,0.016
391.5,0.016
392.3,0.016
393.2,0.016
394,0.016
394.9,0.016
395.7,0.016
396.6,0.016
397.4,0.016
398.3,0.016
399.1,0.016
400,0.016
400.8,0.016
401.6,0.016
402.5,0.016
403.3,0.015
404.2,0.015
405,0.016
405.9,0.017
406.7,0.018
407.6,0.018
408.4,0.017
409.3,0.017
410.1,0.017
411,0.017
411.8,0.018
412.7,0.018
413.5,0.018
414.3,0.018
415.2,0.019
416,0.019
416.9,0.02
417.7,0.019
418.6,0.019
419.4,0.019
420.3,0.019
421.1,0.02
422,0.02
422.8,0.02
423.7,0.02
424.5,0.021
425.4,0.02
426.2,0.02
427,0.021
427.9,0.021
428.7,0.022
429.6,0.022
430.4,0.022
431.3,0.021
432.1,0.022
433,0.022
433.8,0.022
434.7,0.022
435.5,0.022
436.4,0.023
437.2,0.023
438.1,0.022
438.9,0.022
439.7,0.022
440.6,0.022
441.4,0.023
442.3,0.023
443.1,0.022
444,0.022
444.8,0.022
445.7,0.023
446.5,0.023
447.4,0.023
448.2,0.023
449.1,0.023
449.9,0.022
450.7,0.022
451.6,0.022
452.4,0.021
453.3,0.021
454.1,0.021
455,0.022
455.8,0.022
456.7,0.022
457.5,0.022
458.4,0.021
459.2,0.021
460.1,0.021
460.9,0.021
461.8,0.02
462.6,0.02
463.4,0.02
464.3,0.021
465.1,0.02
466,0.02
466.8,0.019
467.7,0.019
468.5,0.019
469.4,0.019
470.2,0.02
471.1,0.019
471.9,0.019
472.8,0.019
473.6,0.019
474.5,0.019
475.3,0.018
476.1,0.018
477,0.018
477.8,0.018
478.7,0.018
479.5,0.018
480.4,0.018
481.2,0.018
482.1,0.019
482.9,0.019
483.8,0.019
484.6,0.019
485.5,0.018
486.3,0.017
487.2,0.018
488,0.018
488.8,0.019
489.7,0.019
490.5,0.02
491.4,0.02
492.2,0.02
493.1,0.02
493.9,0.02
494.8,0.02
495.6,0.02
496.5,0.02
497.3,0.02
498.2,0.021
499,0.021
499.9,0.021
500.7,0.021
501.5,0.021
502.4,0.021
503.2,0.021
504.1,0.022
504.9,0.022
505.8,0.022
506.6,0.022
507.5,0.022
508.3,0.022
509.2,0.023
510,0.023
510.9,0.023
511.7,0.023
512.5,0.024
513.3,0.024
514.1,0.024
514.9,0.024
515.7,0.023
516.5,0.023
517.3,0.023
518,0.023
518.8,0.023
519.6,0.024
520.4,0.024
521.2,0.024
522,0.024
522.8,0.024
523.6,0.024
524.3,0.025
525.1,0.024
525.9,0.023
526.7,0.024
527.5,0.023
528.3,0.023
529.1,0.024
529.9,0.024
530.6,0.024
531.4,0.023
532.2,0.023
533,0.023
533.8,0.023
534.6,0.023
535.4,0.024
536.2,0.024
536.9,0.024
537.7,0.023
538.5,0.023
539.3,0.023
540.1,0.024
540.9,0.024
541.7,0.024
542.5,0.024
543.2,0.024
544,0.024
544.8,0.025
545.6,0.025
546.4,0.025
547.2,0.025
548,0.025
548.8,0.024
549.5,0.024
550.3,0.024
551.1,0.024
551.9,0.024
552.7,0.025
553.5,0.025
554.3,0.025
555.1,0.025
555.8,0.025
556.6,0.025
557.4,0.025
558.2,0.025
559,0.025
559.8,0.025
560.6,0.024
561.4,0.024
562.1,0.024
562.9,0.024
563.7,0.023
564.5,0.023
565.3,0.023
566.1,0.024
566.9,0.024
567.7,0.024
568.4,0.024
569.2,0.024
570,0.023
570.8,0.022
571.6,0.023
572.4,0.023
573.2,0.024
574,0.023
574.7,0.023
575.5,0.023
576.3,0.023
577.1,0.023
577.9,0.023
578.7,0.023
579.5,0.023
580.3,0.023
581,0.022
581.8,0.023
582.6,0.023
583.4,0.023
584.2,0.023
585,0.024
585.8,0.024
586.6,0.024
587.3,0.023
588.1,0.024
588.9,0.024
589.6,0.024
590.4,0.024
591.1,0.024
591.9,0.025
592.6,0.025
593.4,0.025
594.1,0.024
594.9,0.025
595.6,0.025
596.3,0.025
597.1,0.025
597.8,0.025
598.6,0.025
599.3,0.025
600.1,0.026
600.8,0.025
601.6,0.026
602.3,0.025
603.1,0.025
603.8,0.025
604.6,0.026
605.3,0.026
606.1,0.025
606.8,0.025
607.6,0.025
608.3,0.025
609.1,0.025
609.8,0.025
610.6,0.024
611.3,0.024
612,0.024
612.8,0.025
613.5,0.024
614.3,0.025
615,0.024
615.8,0.024
616.5,0.023
617.3,0.023
618,0.023
618.8,0.023
619.5,0.023
620.3,0.022
621,0.022
621.8,0.022
622.5,0.023
623.3,0.022
624,0.022
624.8,0.022
625.5,0.022
626.3,0.022
627,0.022
627.7,0.022
628.5,0.022
629.2,0.022
630,0.022
630.7,0.022
631.5,0.021
632.2,0.022
633,0.021
633.7,0.021
634.5,0.022
635.2,0.022
636,0.023
636.7,0.022
637.5,0.022
638.2,0.022
639,0.021
639.7,0.02
640.5,0.02
641.2,0.02
642,0.021
642.7,0.021
643.4,0.02
644.2,0.02
644.9,0.02
645.7,0.02
646.4,0.021
647.2,0.021
647.9,0.021
648.7,0.02
649.4,0.02
650.2,0.021
650.9,0.021
651.7,0.021
652.4,0.02
653.2,0.02
653.9,0.02
654.7,0.021
655.4,0.021
656.2,0.021
656.9,0.021
657.7,0.021
658.4,0.02
659.1,0.02
659.9,0.02
660.6,0.019
661.4,0.02
662.1,0.02
662.9,0.02
663.6,0.019
664.4,0.019
665.1,0.019
665.9,0.019
666.6,0.019
667.4,0.019
668.1,0.02
668.9,0.019
669.7,0.019
670.4,0.019
671.2,0.019
672,0.019
672.7,0.019
673.5,0.019
674.2,0.019
675,0.019
675.8,0.019
676.5,0.019
677.3,0.018
678.1,0.018
678.8,0.018
679.6,0.018
680.4,0.018
681.1,0.019
681.9,0.019
682.7,0.019
683.4,0.019
684.2,0.019
685,0.018
685.7,0.018
686.5,0.018
687.2,0.018
688,0.018
688.8,0.018
689.5,0.018
690.3,0.018
691.1,0.017
691.8,0.017
692.6,0.017
693.4,0.017
694.1,0.017
694.9,0.017
695.7,0.017
696.4,0.017
697.2,0.017
698,0.017
698.7,0.017
699.5,0.017
700.2,0.017
701,0.017
701.8,0.017
702.5,0.017
703.3,0.017
704.1,0.017
704.8,0.017
705.6,0.017
706.4,0.016
707.2,0.017
708,0.017
708.8,0.016
709.6,0.016
710.4,0.016
711.2,0.016
712.1,0.017
712.9,0.016
713.7,0.017
714.5,0.016
715.3,0.016
716.2,0.016
717,0.016
717.8,0.016
718.6,0.017
719.4,0.017
720.3,0.017
721.1,0.017
721.9,0.017
722.7,0.017
723.5,0.016
724.4,0.017
725.2,0.016
726,0.016
726.8,0.016
727.6,0.017
728.5,0.016
729.3,0.016
730.1,0.016
730.9,0.017
731.7,0.017
732.6,0.016
733.4,0.016
734.2,0.017
735,0.017
735.8,0.017
736.7,0.016
737.5,0.017
738.3,0.017
739.1,0.017
739.9,0.017
740.8,0.017
741.6,0.016
742.4,0.016
743.2,0.016
744,0.016
744.9,0.016
745.7,0.016
746.5,0.016
747.3,0.016
748.1,0.017
748.9,0.017
749.8,0.017
750.6,0.016
751.4,0.016
752.2,0.016
753,0.018
753.9,0.017
754.7,0.016
755.5,0.016
756.3,0.017
757.1,0.017
758,0.016
758.8,0.016
759.6,0.016
760.4,0.016
761.2,0.016
762.1,0.017
762.9,0.017
763.7,0.016
764.5,0.016
765.3,0.016
766.2,0.016
767,0.015
767.8,0.016
768.6,0.016
769.4,0.016
770.3,0.016
771.1,0.016
771.9,0.015
772.7,0.016
773.5,0.016
774.4,0.016
775.2,0.016
776,0.016
776.8,0.016
777.6,0.016
778.5,0.016
779.3,0.016
780.1,0.016
780.9,0.016
781.7,0.016
782.6,0.016
783.4,0.016
784.2,0.016
785,0.016
785.8,0.017
786.7,0.017
787.5,0.017
788.3,0.017
789.1,0.016
789.9,0.016
790.7,0.016
791.6,0.017
792.4,0.016
793.2,0.016
794,0.016
794.8,0.017
795.7,0.017
796.5,0.016
797.3,0.016
798.1,0.016
798.9,0.016
799.8,0.015
800.6,0.015
801.4,0.016
802.2,0.016
803,0.017
803.9,0.017
804.7,0.016
805.5,0.016
806.3,0.016
807.1,0.016
808,0.016
808.8,0.016
809.6,0.016
810.4,0.016
811.2,0.016
812.1,0.016
812.9,0.016
813.7,0.015
814.5,0.015
815.3,0.016
816.2,0.015
817,0.016
817.8,0.015
818.6,0.016
819.4,0.015
820.3,0.016
821.1,0.016
821.9,0.016
822.7,0.016
823.5,0.017
824.4,0.016
825.2,0.016
826,0.016
826.8,0.017
827.6,0.016
828.5,0.016
829.3,0.016
830.1,0.016
830.9,0.015
831.7,0.015
832.6,0.015
833.5,0.015
834.4,0.016
835.3,0.016
836.1,0.016
837,0.016
837.9,0.016
838.8,0.016
839.7,0.016
840.6,0.016
841.5,0.016
842.4,0.016
843.3,0.016
844.1,0.017
845,0.017
845.9,0.016
846.8,0.016
847.7,0.016
848.6,0.016
849.5,0.017
850.4,0.016
851.3,0.017
852.1,0.016
853,0.016
853.9,0.016
854.8,0.016
855.7,0.016
856.6,0.016
857.5,0.015
858.4,0.016
859.3,0.016
860.1,0.016
861,0.016
861.9,0.016
862.8,0.016
863.7,0.015
864.6,0.015
865.5,0.015
866.4,0.016
867.3,0.016
868.1,0.016
869,0.016
869.9,0.016
870.8,0.016
871.7,0.016
872.6,0.015
873.5,0.015
874.4,0.016
875.3,0.016
876.1,0.015
877,0.015
877.9,0.016
878.8,0.016
879.7,0.016
880.6,0.016
881.5,0.016
882.4,0.016
883.3,0.014
884.1,0.015
885,0.015
885.9,0.016
886.8,0.016
887.7,0.016
888.6,0.016
889.5,0.016
890.4,0.015
891.3,0.016
892.1,0.016
893,0.016
893.9,0.016
894.8,0.016
895.7,0.016
896.6,0.015
897.5,0.016
898.4,0.015
899.3,0.016
Vernier Format 2,
187_a3.txt 7/28/119 3:11:0,
Run 12,
Wavelength,Intensity
W,I
nm,rel
,
380.5,0.016
381.3,0.016
382.2,0.016
383,0.016
383.9,0.015
384.7,0.015
385.6,0.015
386.4,0.016
387.3,0.016
388.1,0.016
388.9,0.016
389.8,0.017
390.6,0.017
391.5,0.016
392.3,0.016
393.2,0.016
394,0.016
394.9,0.016
395.7,0.016
396.6,0.016
397.4,0.016
398.3,0.016
399.1,0.016
400,0.016
400.8,0.016
401.6,0.016
402.5,0.016
403.3,0.016
404.2,0.015
405,0.016
405.9,0.016
406.7,0.017
407.6,0.018
408.4,0.018
409.3,0.018
410.1,0.017
411,0.017
411.8,0.016
412.7,0.017
413.5,0.017
414.3,0.018
415.2,0.018
416,0.018
416.9,0.018
417.7,0.019
418.6,0.019
419.4,0.02
420.3,0.019
421.1,0.018
422,0.018
422.8,0.019
423.7,0.019
424.5,0.019
425.4,0.019
426.2,0.019
427,0.019
427.9,0.02
428.7,0.02
429.6,0.02
430.4,0.02
431.3,0.02
432.1,0.021
433,0.02
433.8,0.02
434.7,0.02
435.5,0.021
436.4,0.021
437.2,0.021
438.1,0.022
438.9,0.022
439.7,0.022
440.6,0.021
441.4,0.021
442.3,0.021
443.1,0.022
444,0.022
444.8,0.021
445.7,0.021
446.5,0.02
447.4,0.021
448.2,0.021
449.1,0.022
449.9,0.022
450.7,0.021
451.6,0.021
452.4,0.021
453.3,0.021
454.1,0.021
455,0.021
455.8,0.02
456.7,0.021
457.5,0.021
458.4,0.021
459.2,0.02
460.1,0.02
460.9,0.019
461.8,0.02
462.6,0.019
463.4,0.02
464.3,0.02
465.1,0.02
466,0.019
466.8,0.019
467.7,0.018
468.5,0.018
469.4,0.019
470.2,0.019
471.1,0.019
471.9,0.018
472.8,0.019
473.6,0.018
474.5,0.018
475.3,0.017
476.1,0.017
477,0.017
477.8,0.017
478.7,0.018
479.5,0.018
480.4,0.018
481.2,0.018
482.1,0.018
482.9,0.018
483.8,0.018
484.6,0.018
485.5,0.018
486.3,0.018
487.2,0.018
488,0.018
488.8,0.019
489.7,0.019
490.5,0.019
491.4,0.018
492.2,0.02
493.1,0.019
493.9,0.019
494.8,0.019
495.6,0.019
496.5,0.02
497.3,0.02
498.2,0.02
499,0.02
499.9,0.02
500.7,0.021
501.5,0.021
502.4,0.02
503.2,0.02
504.1,0.02
504.9,0.02
505.8,0.021
506.6,0.021
507.5,0.021
508.3,0.021
509.2,0.021
510,0.021
510.9,0.022
511.7,0.022
512.5,0.022
513.3,0.022
514.1,0.022
514.9,0.022
515.7,0.022
516.5,0.022
517.3,0.022
518,0.022
518.8,0.022
519.6,0.022
520.4,0.023
521.2,0.023
522,0.023
522.8,0.023
523.6,0.023
524.3,0.022
525.1,0.022
525.9,0.022
526.7,0.023
527.5,0.023
528.3,0.023
529.1,0.022
529.9,0.022
530.6,0.022
531.4,0.022
532.2,0.022
533,0.022
533.8,0.022
534.6,0.023
535.4,0.022
536.2,0.023
536.9,0.022
537.7,0.022
538.5,0.022
539.3,0.022
540.1,0.023
540.9,0.023
541.7,0.023
542.5,0.023
543.2,0.023
544,0.023
544.8,0.023
545.6,0.023
546.4,0.023
547.2,0.023
548,0.023
548.8,0.023
549.5,0.023
550.3,0.023
551.1,0.024
551.9,0.023
552.7,0.023
553.5,0.023
554.3,0.024
555.1,0.023
555.8,0.023
556.6,0.023
557.4,0.023
558.2,0.023
559,0.023
559.8,0.023
560.6,0.023
561.4,0.023
562.1,0.023
562.9,0.023
563.7,0.023
564.5,0.022
565.3,0.022
566.1,0.022
566.9,0.023
567.7,0.022
568.4,0.022
569.2,0.022
570,0.023
570.8,0.022
571.6,0.022
572.4,0.022
573.2,0.022
574,0.022
574.7,0.022
575.5,0.022
576.3,0.022
577.1,0.023
577.9,0.021
578.7,0.021
579.5,0.021
580.3,0.022
581,0.022
581.8,0.023
582.6,0.023
583.4,0.022
584.2,0.021
585,0.022
585.8,0.022
586.6,0.023
587.3,0.022
588.1,0.022
588.9,0.023
589.6,0.023
590.4,0.023
591.1,0.023
591.9,0.024
592.6,0.023
593.4,0.023
594.1,0.022
594.9,0.022
595.6,0.023
596.3,0.023
597.1,0.023
597.8,0.022
598.6,0.023
599.3,0.024
600.1,0.024
600.8,0.023
601.6,0.023
602.3,0.023
603.1,0.023
603.8,0.023
604.6,0.023
605.3,0.023
606.1,0.024
606.8,0.024
607.6,0.024
608.3,0.023
609.1,0.023
609.8,0.023
610.6,0.022
611.3,0.023
612,0.022
612.8,0.023
613.5,0.022
614.3,0.022
615,0.023
615.8,0.023
616.5,0.024
617.3,0.023
618,0.023
618.8,0.022
619.5,0.022
620.3,0.022
621,0.022
621.8,0.022
622.5,0.022
623.3,0.021
624,0.021
624.8,0.021
625.5,0.02
626.3,0.021
627,0.021
627.7,0.021
628.5,0.021
629.2,0.021
630,0.021
630.7,0.021
631.5,0.02
632.2,0.021
633,0.021
633.7,0.022
634.5,0.022
635.2,0.022
636,0.021
636.7,0.02
637.5,0.021
638.2,0.021
639,0.021
639.7,0.021
640.5,0.02
641.2,0.02
642,0.02
642.7,0.021
643.4,0.02
644.2,0.02
644.9,0.02
645.7,0.02
646.4,0.02
647.2,0.02
647.9,0.02
648.7,0.02
649.4,0.02
650.2,0.021
650.9,0.02
651.7,0.02
652.4,0.02
653.2,0.02
653.9,0.02
654.7,0.02
655.4,0.02
656.2,0.02
656.9,0.019
657.7,0.019
658.4,0.019
659.1,0.019
659.9,0.019
660.6,0.019
661.4,0.02
662.1,0.02
662.9,0.02
663.6,0.019
664.4,0.019
665.1,0.019
665.9,0.018
666.6,0.018
667.4,0.019
668.1,0.019
668.9,0.019
669.7,0.019
670.4,0.019
671.2,0.018
672,0.018
672.7,0.019
673.5,0.019
674.2,0.019
675,0.019
675.8,0.018
676.5,0.018
677.3,0.017
678.1,0.017
678.8,0.017
679.6,0.018
680.4,0.018
681.1,0.018
681.9,0.018
682.7,0.017
683.4,0.017
684.2,0.018
685,0.018
685.7,0.018
686.5,0.017
687.2,0.017
688,0.017
688.8,0.016
689.5,0.016
690.3,0.016
691.1,0.017
691.8,0.018
692.6,0.017
693.4,0.017
694.1,0.016
694.9,0.016
695.7,0.016
696.4,0.017
697.2,0.016
698,0.016
698.7,0.017
699.5,0.017
700.2,0.017
701,0.017
701.8,0.017
702.5,0.016
703.3,0.017
704.1,0.017
704.8,0.017
705.6,0.016
706.4,0.016
707.2,0.016
708,0.017
708.8,0.016
709.6,0.016
710.4,0.016
711.2,0.017
712.1,0.017
712.9,0.016
713.7,0.016
714.5,0.016
715.3,0.016
716.2,0.016
717,0.016
717.8,0.016
718.6,0.016
719.4,0.016
720.3,0.016
721.1,0.016
721.9,0.016
722.7,0.016
723.5,0.016
724.4,0.015
725.2,0.015
726,0.015
726.8,0.016
727.6,0.016
728.5,0.016
729.3,0.016
730.1,0.016
730.9,0.016
731.7,0.016
732.6,0.016
733.4,0.016
734.2,0.016
735,0.017
735.8,0.017
736.7,0.017
737.5,0.016
738.3,0.016
739.1,0.016
739.9,0.017
740.8,0.017
741.6,0.016
742.4,0.016
743.2,0.016
744,0.017
744.9,0.016
745.7,0.016
746.5,0.016
747.3,0.016
748.1,0.015
748.9,0.016
749.8,0.016
750.6,0.016
751.4,0.016
752.2,0.016
753,0.016
753.9,0.016
754.7,0.016
755.5,0.016
756.3,0.017
757.1,0.017
758,0.016
758.8,0.016
759.6,0.016
760.4,0.016
761.2,0.015
762.1,0.016
762.9,0.015
763.7,0.016
764.5,0.016
765.3,0.016
766.2,0.016
767,0.016
767.8,0.016
768.6,0.016
769.4,0.016
770.3,0.016
771.1,0.015
771.9,0.015
772.7,0.015
773.5,0.016
774.4,0.016
775.2,0.015
776,0.016
776.8,0.016
777.6,0.016
778.5,0.016
779.3,0.016
780.1,0.016
780.9,0.016
781.7,0.016
782.6,0.015
783.4,0.016
784.2,0.015
785,0.016
785.8,0.016
786.7,0.017
787.5,0.017
788.3,0.017
789.1,0.017
789.9,0.016
790.7,0.015
791.6,0.015
792.4,0.015
793.2,0.015
794,0.015
794.8,0.016
795.7,0.016
796.5,0.016
797.3,0.016
798.1,0.016
798.9,0.016
799.8,0.015
800.6,0.015
801.4,0.015
802.2,0.016
803,0.016
803.9,0.016
804.7,0.016
805.5,0.016
806.3,0.016
807.1,0.015
808,0.016
808.8,0.016
809.6,0.016
810.4,0.015
811.2,0.015
812.1,0.016
812.9,0.016
813.7,0.016
814.5,0.015
815.3,0.015
816.2,0.015
817,0.015
817.8,0.016
818.6,0.016
819.4,0.016
820.3,0.015
821.1,0.015
821.9,0.016
822.7,0.016
823.5,0.015
824.4,0.015
825.2,0.016
826,0.017
826.8,0.017
827.6,0.017
828.5,0.017
829.3,0.017
830.1,0.016
830.9,0.016
831.7,0.015
832.6,0.015
833.5,0.015
834.4,0.016
835.3,0.016
836.1,0.017
837,0.018
837.9,0.017
838.8,0.016
839.7,0.015
840.6,0.015
841.5,0.015
842.4,0.014
843.3,0.015
844.1,0.016
845,0.016
845.9,0.016
846.8,0.016
847.7,0.017
848.6,0.016
849.5,0.016
850.4,0.016
851.3,0.016
852.1,0.016
853,0.016
853.9,0.015
854.8,0.016
855.7,0.015
856.6,0.015
857.5,0.015
858.4,0.016
859.3,0.016
860.1,0.016
861,0.016
861.9,0.016
862.8,0.016
863.7,0.016
864.6,0.016
865.5,0.015
866.4,0.016
867.3,0.016
868.1,0.016
869,0.016
869.9,0.016
870.8,0.016
871.7,0.016
872.6,0.015
873.5,0.014
874.4,0.015
875.3,0.015
876.1,0.015
877,0.015
877.9,0.016
878.8,0.016
879.7,0.016
880.6,0.016
881.5,0.016
882.4,0.016
883.3,0.016
884.1,0.016
885,0.016
885.9,0.016
886.8,0.016
887.7,0.016
888.6,0.016
889.5,0.016
890.4,0.016
891.3,0.016
892.1,0.015
893,0.015
893.9,0.016
894.8,0.016
895.7,0.015
896.6,0.015
897.5,0.015
898.4,0.015
899.3,0.015
Vernier Format 2,
187_a3.txt 7/28/119 3:11:0,
Run 13,
Wavelength,Intensity
W,I
nm,rel
,
380.5,0.016
381.3,0.015
382.2,0.015
383,0.015
383.9,0.014
384.7,0.014
385.6,0.014
386.4,0.015
387.3,0.015
388.1,0.015
388.9,0.015
389.8,0.015
390.6,0.015
391.5,0.015
392.3,0.016
393.2,0.015
394,0.016
394.9,0.015
395.7,0.015
396.6,0.015
397.4,0.016
398.3,0.016
399.1,0.015
400,0.015
400.8,0.015
401.6,0.015
402.5,0.015
403.3,0.015
404.2,0.015
405,0.016
405.9,0.015
406.7,0.016
407.6,0.016
408.4,0.016
409.3,0.016
410.1,0.015
411,0.016
411.8,0.016
412.7,0.016
413.5,0.016
414.3,0.017
415.2,0.016
416,0.016
416.9,0.016
417.7,0.017
418.6,0.017
419.4,0.017
420.3,0.017
421.1,0.017
422,0.017
422.8,0.017
423.7,0.017
424.5,0.018
425.4,0.017
426.2,0.017
427,0.017
427.9,0.017
428.7,0.018
429.6,0.018
430.4,0.018
431.3,0.018
432.1,0.019
433,0.018
433.8,0.018
434.7,0.018
435.5,0.018
436.4,0.018
437.2,0.018
438.1,0.018
438.9,0.018
439.7,0.019
440.6,0.018
441.4,0.018
442.3,0.018
443.1,0.018
444,0.018
444.8,0.018
445.7,0.018
446.5,0.018
447.4,0.018
448.2,0.018
449.1,0.018
449.9,0.019
450.7,0.019
451.6,0.019
452.4,0.018
453.3,0.018
454.1,0.018
455,0.018
455.8,0.018
456.7,0.018
457.5,0.018
458.4,0.018
459.2,0.018
460.1,0.017
460.9,0.017
461.8,0.017
462.6,0.016
463.4,0.016
464.3,0.016
465.1,0.017
466,0.016
466.8,0.017
467.7,0.016
468.5,0.017
469.4,0.017
470.2,0.018
471.1,0.017
471.9,0.017
472.8,0.017
473.6,0.017
474.5,0.017
475.3,0.016
476.1,0.016
477,0.016
477.8,0.016
478.7,0.016
479.5,0.016
480.4,0.016
481.2,0.016
482.1,0.016
482.9,0.016
483.8,0.017
484.6,0.017
485.5,0.016
486.3,0.016
487.2,0.017
488,0.016
488.8,0.017
489.7,0.017
490.5,0.017
491.4,0.017
492.2,0.017
493.1,0.017
493.9,0.016
494.8,0.016
495.6,0.016
496.5,0.016
497.3,0.016
498.2,0.017
499,0.017
499.9,0.017
500.7,0.017
501.5,0.017
502.4,0.018
503.2,0.018
504.1,0.018
504.9,0.018
505.8,0.018
506.6,0.018
507.5,0.018
508.3,0.018
509.2,0.018
510,0.018
510.9,0.018
511.7,0.018
512.5,0.019
513.3,0.019
514.1,0.019
514.9,0.018
515.7,0.018
516.5,0.018
517.3,0.018
518,0.018
518.8,0.017
519.6,0.018
520.4,0.018
521.2,0.018
522,0.018
522.8,0.018
523.6,0.019
524.3,0.018
525.1,0.018
525.9,0.018
526.7,0.018
527.5,0.018
528.3,0.019
529.1,0.019
529.9,0.018
530.6,0.018
531.4,0.017
532.2,0.018
533,0.018
533.8,0.018
534.6,0.018
535.4,0.018
536.2,0.018
536.9,0.018
537.7,0.018
538.5,0.018
539.3,0.018
540.1,0.018
540.9,0.018
541.7,0.018
542.5,0.018
543.2,0.019
544,0.018
544.8,0.019
545.6,0.019
546.4,0.02
547.2,0.019
548,0.02
548.8,0.019
549.5,0.019
550.3,0.018
551.1,0.018
551.9,0.018
552.7,0.018
553.5,0.019
554.3,0.019
555.1,0.019
555.8,0.019
556.6,0.018
557.4,0.019
558.2,0.018
559,0.018
559.8,0.018
560.6,0.018
561.4,0.018
562.1,0.019
562.9,0.019
563.7,0.017
564.5,0.018
565.3,0.018
566.1,0.018
566.9,0.018
567.7,0.018
568.4,0.018
569.2,0.018
570,0.017
570.8,0.017
571.6,0.017
572.4,0.018
573.2,0.019
574,0.019
574.7,0.018
575.5,0.018
576.3,0.018
577.1,0.018
577.9,0.017
578.7,0.018
579.5,0.018
580.3,0.018
581,0.018
581.8,0.018
582.6,0.017
583.4,0.018
584.2,0.018
585,0.019
585.8,0.018
586.6,0.018
587.3,0.018
588.1,0.019
588.9,0.019
589.6,0.018
590.4,0.018
591.1,0.018
591.9,0.018
592.6,0.019
593.4,0.019
594.1,0.018
594.9,0.018
595.6,0.018
596.3,0.018
597.1,0.018
597.8,0.017
598.6,0.017
599.3,0.017
600.1,0.018
600.8,0.018
601.6,0.018
602.3,0.018
603.1,0.018
603.8,0.019
604.6,0.018
605.3,0.018
606.1,0.018
606.8,0.018
607.6,0.018
608.3,0.018
609.1,0.018
609.8,0.017
610.6,0.018
611.3,0.017
612,0.017
612.8,0.017
613.5,0.017
614.3,0.018
615,0.018
615.8,0.018
616.5,0.018
617.3,0.018
618,0.017
618.8,0.017
619.5,0.017
620.3,0.016
621,0.015
621.8,0.016
622.5,0.017
623.3,0.017
624,0.017
624.8,0.017
625.5,0.017
626.3,0.017
627,0.016
627.7,0.016
628.5,0.016
629.2,0.016
630,0.017
630.7,0.016
631.5,0.017
632.2,0.017
633,0.017
633.7,0.017
634.5,0.017
635.2,0.017
636,0.017
636.7,0.017
637.5,0.017
638.2,0.017
639,0.017
639.7,0.017
640.5,0.017
641.2,0.017
642,0.017
642.7,0.017
643.4,0.017
644.2,0.016
644.9,0.016
645.7,0.016
646.4,0.017
647.2,0.016
647.9,0.017
648.7,0.016
649.4,0.015
650.2,0.015
650.9,0.016
651.7,0.017
652.4,0.017
653.2,0.017
653.9,0.017
654.7,0.017
655.4,0.017
656.2,0.016
656.9,0.016
657.7,0.017
658.4,0.016
659.1,0.016
659.9,0.015
660.6,0.015
661.4,0.015
662.1,0.016
662.9,0.016
663.6,0.016
664.4,0.016
665.1,0.016
665.9,0.016
666.6,0.016
667.4,0.016
668.1,0.016
668.9,0.015
669.7,0.015
670.4,0.015
671.2,0.016
672,0.015
672.7,0.015
673.5,0.015
674.2,0.016
675,0.016
675.8,0.016
676.5,0.016
677.3,0.016
678.1,0.016
678.8,0.015
679.6,0.015
680.4,0.015
681.1,0.016
681.9,0.015
682.7,0.016
683.4,0.016
684.2,0.016
685,0.016
685.7,0.016
686.5,0.015
687.2,0.015
688,0.015
688.8,0.016
689.5,0.016
690.3,0.015
691.1,0.016
691.8,0.015
692.6,0.015
693.4,0.015
694.1,0.015
694.9,0.015
695.7,0.015
696.4,0.016
697.2,0.016
698,0.016
698.7,0.016
699.5,0.015
700.2,0.016
701,0.015
701.8,0.015
702.5,0.015
703.3,0.015
704.1,0.016
704.8,0.016
705.6,0.016
706.4,0.015
707.2,0.016
708,0.015
708.8,0.016
709.6,0.015
710.4,0.016
711.2,0.015
712.1,0.016
712.9,0.016
713.7,0.016
714.5,0.016
715.3,0.015
716.2,0.016
717,0.016
717.8,0.016
718.6,0.016
719.4,0.015
720.3,0.015
721.1,0.015
721.9,0.015
722.7,0.015
723.5,0.016
724.4,0.015
725.2,0.016
726,0.015
726.8,0.016
727.6,0.016
728.5,0.015
729.3,0.015
730.1,0.016
730.9,0.017
731.7,0.017
732.6,0.016
733.4,0.016
734.2,0.016
735,0.016
735.8,0.016
736.7,0.015
737.5,0.015
738.3,0.015
739.1,0.016
739.9,0.016
740.8,0.016
741.6,0.016
742.4,0.016
743.2,0.016
744,0.017
744.9,0.017
745.7,0.017
746.5,0.016
747.3,0.017
748.1,0.017
748.9,0.016
749.8,0.015
750.6,0.015
751.4,0.015
752.2,0.016
753,0.016
753.9,0.016
754.7,0.015
755.5,0.015
756.3,0.015
757.1,0.015
758,0.015
758.8,0.015
759.6,0.015
760.4,0.015
761.2,0.015
762.1,0.015
762.9,0.015
763.7,0.015
764.5,0.015
765.3,0.015
766.2,0.016
767,0.015
767.8,0.016
768.6,0.016
769.4,0.016
770.3,0.015
771.1,0.015
771.9,0.015
772.7,0.015
773.5,0.015
774.4,0.016
775.2,0.015
776,0.016
776.8,0.016
777.6,0.016
778.5,0.016
779.3,0.016
780.1,0.016
780.9,0.016
781.7,0.016
782.6,0.016
783.4,0.016
784.2,0.015
785,0.015
785.8,0.015
786.7,0.016
787.5,0.016
788.3,0.016
789.1,0.016
789.9,0.015
790.7,0.015
791.6,0.016
792.4,0.015
793.2,0.015
794,0.015
794.8,0.016
795.7,0.016
796.5,0.015
797.3,0.015
798.1,0.014
798.9,0.014
799.8,0.014
800.6,0.015
801.4,0.015
802.2,0.016
803,0.016
803.9,0.015
804.7,0.016
805.5,0.015
806.3,0.016
807.1,0.015
808,0.015
808.8,0.015
809.6,0.015
810.4,0.016
811.2,0.015
812.1,0.016
812.9,0.016
813.7,0.015
814.5,0.015
815.3,0.015
816.2,0.016
817,0.016
817.8,0.016
818.6,0.016
819.4,0.016
820.3,0.015
821.1,0.016
821.9,0.016
822.7,0.016
823.5,0.016
824.4,0.015
825.2,0.016
826,0.016
826.8,0.017
827.6,0.017
828.5,0.016
829.3,0.015
830.1,0.015
830.9,0.015
831.7,0.015
832.6,0.015
833.5,0.016
834.4,0.016
835.3,0.016
836.1,0.016
837,0.016
837.9,0.016
838.8,0.015
839.7,0.015
840.6,0.014
841.5,0.015
842.4,0.015
843.3,0.016
844.1,0.016
845,0.016
845.9,0.016
846.8,0.015
847.7,0.015
848.6,0.015
849.5,0.016
850.4,0.016
851.3,0.017
852.1,0.016
853,0.015
853.9,0.015
854.8,0.016
855.7,0.016
856.6,0.015
857.5,0.015
858.4,0.015
859.3,0.015
860.1,0.016
861,0.016
861.9,0.016
862.8,0.015
863.7,0.015
864.6,0.017
865.5,0.017
866.4,0.016
867.3,0.016
868.1,0.015
869,0.015
869.9,0.015
870.8,0.016
871.7,0.015
872.6,0.015
873.5,0.015
874.4,0.015
875.3,0.015
876.1,0.015
877,0.015
877.9,0.014
878.8,0.015
879.7,0.015
880.6,0.016
881.5,0.015
882.4,0.016
883.3,0.015
884.1,0.015
885,0.015
885.9,0.015
886.8,0.016
887.7,0.016
888.6,0.016
889.5,0.016
890.4,0.016
891.3,0.016
892.1,0.016
893,0.016
893.9,0.015
894.8,0.015
895.7,0.015
896.6,0.015
897.5,0.016
898.4,0.015
899.3,0.014
Vernier Format 2,
187_a3.txt 7/28/119 3:11:0,
Run 14,
Wavelength,Intensity
W,I
nm,rel
,
380.5,0.016
381.3,0.016
382.2,0.016
383,0.016
383.9,0.016
384.7,0.016
385.6,0.016
386.4,0.016
387.3,0.016
388.1,0.016
388.9,0.016
389.8,0.016
390.6,0.016
391.5,0.016
392.3,0.016
393.2,0.016
394,0.017
394.9,0.017
395.7,0.017
396.6,0.017
397.4,0.017
398.3,0.017
399.1,0.017
400,0.017
400.8,0.017
401.6,0.016
402.5,0.017
403.3,0.017
404.2,0.018
405,0.018
405.9,0.018
406.7,0.019
407.6,0.019
408.4,0.019
409.3,0.018
410.1,0.019
411,0.019
411.8,0.02
412.7,0.02
413.5,0.02
414.3,0.02
415.2,0.021
416,0.021
416.9,0.021
417.7,0.022
418.6,0.022
419.4,0.023
420.3,0.022
421.1,0.022
422,0.022
422.8,0.023
423.7,0.024
424.5,0.025
425.4,0.025
426.2,0.025
427,0.025
427.9,0.025
428.7,0.026
429.6,0.027
430.4,0.027
431.3,0.028
432.1,0.028
433,0.028
433.8,0.027
434.7,0.028
435.5,0.028
436.4,0.028
437.2,0.028
438.1,0.029
438.9,0.029
439.7,0.029
440.6,0.028
441.4,0.029
442.3,0.029
443.1,0.03
444,0.03
444.8,0.03
445.7,0.029
446.5,0.028
447.4,0.028
448.2,0.028
449.1,0.028
449.9,0.029
450.7,0.028
451.6,0.028
452.4,0.027
453.3,0.027
454.1,0.026
455,0.026
455.8,0.026
456.7,0.027
457.5,0.027
458.4,0.025
459.2,0.024
460.1,0.023
460.9,0.023
461.8,0.023
462.6,0.023
463.4,0.023
464.3,0.023
465.1,0.023
466,0.023
466.8,0.022
467.7,0.021
468.5,0.022
469.4,0.022
470.2,0.022
471.1,0.022
471.9,0.022
472.8,0.021
473.6,0.021
474.5,0.02
475.3,0.021
476.1,0.021
477,0.021
477.8,0.021
478.7,0.021
479.5,0.021
480.4,0.021
481.2,0.021
482.1,0.021
482.9,0.021
483.8,0.021
484.6,0.021
485.5,0.02
486.3,0.02
487.2,0.02
488,0.021
488.8,0.021
489.7,0.022
490.5,0.022
491.4,0.022
492.2,0.022
493.1,0.022
493.9,0.022
494.8,0.023
495.6,0.023
496.5,0.023
497.3,0.023
498.2,0.023
499,0.023
499.9,0.024
500.7,0.024
501.5,0.025
502.4,0.025
503.2,0.025
504.1,0.025
504.9,0.026
505.8,0.027
506.6,0.028
507.5,0.027
508.3,0.027
509.2,0.026
510,0.027
510.9,0.028
511.7,0.028
512.5,0.028
513.3,0.029
514.1,0.029
514.9,0.029
515.7,0.029
516.5,0.029
517.3,0.03
518,0.03
518.8,0.029
519.6,0.029
520.4,0.029
521.2,0.029
522,0.029
522.8,0.029
523.6,0.029
524.3,0.03
525.1,0.029
525.9,0.029
526.7,0.029
527.5,0.029
528.3,0.029
529.1,0.029
529.9,0.029
530.6,0.029
531.4,0.029
532.2,0.029
533,0.029
533.8,0.029
534.6,0.029
535.4,0.029
536.2,0.029
536.9,0.029
537.7,0.029
538.5,0.03
539.3,0.03
540.1,0.031
540.9,0.032
541.7,0.031
542.5,0.031
543.2,0.03
544,0.031
544.8,0.031
545.6,0.032
546.4,0.032
547.2,0.032
548,0.032
548.8,0.033
549.5,0.034
550.3,0.034
551.1,0.034
551.9,0.033
552.7,0.032
553.5,0.032
554.3,0.033
555.1,0.033
555.8,0.033
556.6,0.033
557.4,0.033
558.2,0.033
559,0.033
559.8,0.032
560.6,0.031
561.4,0.031
562.1,0.031
562.9,0.031
563.7,0.031
564.5,0.031
565.3,0.031
566.1,0.031
566.9,0.03
567.7,0.03
568.4,0.029
569.2,0.03
570,0.029
570.8,0.029
571.6,0.029
572.4,0.029
573.2,0.029
574,0.029
574.7,0.029
575.5,0.029
576.3,0.029
577.1,0.029
577.9,0.028
578.7,0.029
579.5,0.029
580.3,0.03
581,0.028
581.8,0.029
582.6,0.029
583.4,0.029
584.2,0.029
585,0.029
585.8,0.028
586.6,0.028
587.3,0.028
588.1,0.028
588.9,0.028
589.6,0.028
590.4,0.028
591.1,0.028
591.9,0.029
592.6,0.029
593.4,0.028
594.1,0.028
594.9,0.029
595.6,0.03
596.3,0.03
597.1,0.029
597.8,0.029
598.6,0.029
599.3,0.029
600.1,0.029
600.8,0.029
601.6,0.029
602.3,0.028
603.1,0.028
603.8,0.028
604.6,0.029
605.3,0.029
606.1,0.029
606.8,0.028
607.6,0.029
608.3,0.028
609.1,0.028
609.8,0.028
610.6,0.027
611.3,0.027
612,0.028
612.8,0.028
613.5,0.027
614.3,0.027
615,0.026
615.8,0.025
616.5,0.025
617.3,0.026
618,0.026
618.8,0.026
619.5,0.025
620.3,0.025
621,0.025
621.8,0.025
622.5,0.025
623.3,0.025
624,0.024
624.8,0.024
625.5,0.024
626.3,0.024
627,0.024
627.7,0.024
628.5,0.024
629.2,0.023
630,0.023
630.7,0.023
631.5,0.023
632.2,0.023
633,0.022
633.7,0.022
634.5,0.023
635.2,0.023
636,0.023
636.7,0.023
637.5,0.023
638.2,0.024
639,0.023
639.7,0.022
640.5,0.022
641.2,0.022
642,0.022
642.7,0.023
643.4,0.023
644.2,0.023
644.9,0.023
645.7,0.023
646.4,0.023
647.2,0.022
647.9,0.022
648.7,0.022
649.4,0.022
650.2,0.022
650.9,0.022
651.7,0.021
652.4,0.021
653.2,0.021
653.9,0.021
654.7,0.022
655.4,0.022
656.2,0.021
656.9,0.021
657.7,0.021
658.4,0.021
659.1,0.021
659.9,0.021
660.6,0.021
661.4,0.022
662.1,0.021
662.9,0.021
663.6,0.021
664.4,0.02
665.1,0.02
665.9,0.02
666.6,0.02
667.4,0.02
668.1,0.02
668.9,0.02
669.7,0.02
670.4,0.02
671.2,0.02
672,0.019
672.7,0.019
673.5,0.019
674.2,0.019
675,0.019
675.8,0.02
676.5,0.02
677.3,0.019
678.1,0.019
678.8,0.019
679.6,0.019
680.4,0.019
681.1,0.019
681.9,0.019
682.7,0.019
683.4,0.019
684.2,0.019
685,0.018
685.7,0.018
686.5,0.018
687.2,0.018
688,0.018
688.8,0.018
689.5,0.019
690.3,0.018
691.1,0.019
691.8,0.019
692.6,0.018
693.4,0.018
694.1,0.018
694.9,0.018
695.7,0.018
696.4,0.018
697.2,0.017
698,0.017
698.7,0.017
699.5,0.017
700.2,0.017
701,0.017
701.8,0.017
702.5,0.017
703.3,0.017
704.1,0.017
704.8,0.017
705.6,0.017
706.4,0.017
707.2,0.017
708,0.017
708.8,0.016
709.6,0.017
710.4,0.017
711.2,0.017
712.1,0.017
712.9,0.017
713.7,0.017
714.5,0.016
715.3,0.016
716.2,0.016
717,0.016
717.8,0.016
718.6,0.017
719.4,0.017
720.3,0.017
721.1,0.018
721.9,0.017
722.7,0.017
723.5,0.016
724.4,0.016
725.2,0.016
726,0.016
726.8,0.016
727.6,0.016
728.5,0.015
729.3,0.015
730.1,0.016
730.9,0.016
731.7,0.016
732.6,0.016
733.4,0.015
734.2,0.016
735,0.017
735.8,0.017
736.7,0.017
737.5,0.016
738.3,0.016
739.1,0.016
739.9,0.016
740.8,0.016
741.6,0.016
742.4,0.016
743.2,0.017
744,0.016
744.9,0.016
745.7,0.016
746.5,0.016
747.3,0.016
748.1,0.016
748.9,0.016
749.8,0.016
750.6,0.016
751.4,0.016
752.2,0.016
753,0.017
753.9,0.017
754.7,0.016
755.5,0.016
756.3,0.016
757.1,0.017
758,0.017
758.8,0.017
759.6,0.016
760.4,0.016
761.2,0.015
762.1,0.016
762.9,0.016
763.7,0.016
764.5,0.016
765.3,0.015
766.2,0.016
767,0.016
767.8,0.017
768.6,0.017
769.4,0.016
770.3,0.016
771.1,0.015
771.9,0.015
772.7,0.015
773.5,0.015
774.4,0.016
775.2,0.016
776,0.016
776.8,0.017
777.6,0.017
778.5,0.016
779.3,0.016
780.1,0.015
780.9,0.015
781.7,0.015
782.6,0.015
783.4,0.015
784.2,0.016
785,0.016
785.8,0.016
786.7,0.016
787.5,0.017
788.3,0.017
789.1,0.016
789.9,0.015
790.7,0.015
791.6,0.016
792.4,0.015
793.2,0.015
794,0.015
794.8,0.016
795.7,0.016
796.5,0.015
797.3,0.016
798.1,0.016
798.9,0.016
799.8,0.015
800.6,0.016
801.4,0.016
802.2,0.016
803,0.016
803.9,0.016
804.7,0.016
805.5,0.016
806.3,0.015
807.1,0.015
808,0.016
808.8,0.016
809.6,0.016
810.4,0.016
811.2,0.016
812.1,0.016
812.9,0.016
813.7,0.015
814.5,0.015
815.3,0.015
816.2,0.015
817,0.015
817.8,0.016
818.6,0.016
819.4,0.016
820.3,0.016
821.1,0.016
821.9,0.016
822.7,0.016
823.5,0.016
824.4,0.015
825.2,0.015
826,0.016
826.8,0.016
827.6,0.016
828.5,0.016
829.3,0.016
830.1,0.016
830.9,0.015
831.7,0.015
832.6,0.015
833.5,0.016
834.4,0.016
835.3,0.016
836.1,0.016
837,0.016
837.9,0.016
838.8,0.016
839.7,0.016
840.6,0.016
841.5,0.016
842.4,0.016
843.3,0.017
844.1,0.016
845,0.016
845.9,0.016
846.8,0.016
847.7,0.016
848.6,0.015
849.5,0.015
850.4,0.016
851.3,0.016
852.1,0.016
853,0.016
853.9,0.016
854.8,0.016
855.7,0.016
856.6,0.015
857.5,0.015
858.4,0.016
859.3,0.015
860.1,0.015
861,0.015
861.9,0.016
862.8,0.016
863.7,0.016
864.6,0.016
865.5,0.016
866.4,0.016
867.3,0.016
868.1,0.016
869,0.016
869.9,0.016
870.8,0.016
871.7,0.016
872.6,0.016
873.5,0.015
874.4,0.016
875.3,0.015
876.1,0.015
877,0.015
877.9,0.015
878.8,0.015
879.7,0.016
880.6,0.016
881.5,0.016
882.4,0.015
883.3,0.015
884.1,0.016
885,0.015
885.9,0.015
886.8,0.015
887.7,0.016
888.6,0.016
889.5,0.016
890.4,0.015
891.3,0.015
892.1,0.015
893,0.016
893.9,0.016
894.8,0.015
895.7,0.015
896.6,0.015
897.5,0.015
898.4,0.016
899.3,0.016
Vernier Format 2,
187_a3.txt 7/28/119 3:11:0,
Run 15,
Wavelength,Intensity
W,I
nm,rel
,
380.5,0.016
381.3,0.015
382.2,0.015
383,0.016
383.9,0.016
384.7,0.016
385.6,0.016
386.4,0.016
387.3,0.015
388.1,0.015
388.9,0.015
389.8,0.016
390.6,0.016
391.5,0.016
392.3,0.015
393.2,0.016
394,0.016
394.9,0.016
395.7,0.016
396.6,0.016
397.4,0.016
398.3,0.016
399.1,0.016
400,0.016
400.8,0.016
401.6,0.015
402.5,0.016
403.3,0.015
404.2,0.016
405,0.016
405.9,0.016
406.7,0.017
407.6,0.017
408.4,0.017
409.3,0.016
410.1,0.016
411,0.016
411.8,0.017
412.7,0.017
413.5,0.017
414.3,0.017
415.2,0.017
416,0.018
416.9,0.017
417.7,0.018
418.6,0.018
419.4,0.018
420.3,0.018
421.1,0.018
422,0.018
422.8,0.018
423.7,0.018
424.5,0.019
425.4,0.019
426.2,0.019
427,0.02
427.9,0.021
428.7,0.02
429.6,0.02
430.4,0.02
431.3,0.02
432.1,0.02
433,0.02
433.8,0.02
434.7,0.021
435.5,0.021
436.4,0.021
437.2,0.021
438.1,0.021
438.9,0.021
439.7,0.021
440.6,0.02
441.4,0.021
442.3,0.021
443.1,0.021
444,0.021
444.8,0.021
445.7,0.021
446.5,0.021
447.4,0.02
448.2,0.021
449.1,0.02
449.9,0.02
450.7,0.02
451.6,0.02
452.4,0.021
453.3,0.02
454.1,0.021
455,0.02
455.8,0.02
456.7,0.02
457.5,0.02
458.4,0.021
459.2,0.019
460.1,0.019
460.9,0.018
461.8,0.019
462.6,0.018
463.4,0.018
464.3,0.019
465.1,0.019
466,0.018
466.8,0.018
467.7,0.018
468.5,0.018
469.4,0.018
470.2,0.018
471.1,0.019
471.9,0.018
472.8,0.018
473.6,0.017
474.5,0.017
475.3,0.017
476.1,0.017
477,0.018
477.8,0.018
478.7,0.018
479.5,0.017
480.4,0.017
481.2,0.017
482.1,0.018
482.9,0.018
483.8,0.019
484.6,0.018
485.5,0.018
486.3,0.018
487.2,0.018
488,0.017
488.8,0.018
489.7,0.019
490.5,0.02
491.4,0.019
492.2,0.019
493.1,0.019
493.9,0.019
494.8,0.018
495.6,0.018
496.5,0.019
497.3,0.02
498.2,0.02
499,0.02
499.9,0.018
500.7,0.019
501.5,0.02
502.4,0.02
503.2,0.02
504.1,0.021
504.9,0.021
505.8,0.02
506.6,0.019
507.5,0.019
508.3,0.019
509.2,0.02
510,0.02
510.9,0.02
511.7,0.021
512.5,0.021
513.3,0.021
514.1,0.021
514.9,0.021
515.7,0.021
516.5,0.021
517.3,0.021
518,0.021
518.8,0.021
519.6,0.021
520.4,0.02
521.2,0.02
522,0.021
522.8,0.021
523.6,0.021
524.3,0.021
525.1,0.02
525.9,0.02
526.7,0.02
527.5,0.021
528.3,0.021
529.1,0.021
529.9,0.02
530.6,0.02
531.4,0.021
532.2,0.021
533,0.021
533.8,0.021
534.6,0.021
535.4,0.02
536.2,0.02
536.9,0.02
537.7,0.021
538.5,0.021
539.3,0.021
540.1,0.021
540.9,0.021
541.7,0.021
542.5,0.021
543.2,0.021
544,0.021
544.8,0.021
545.6,0.021
546.4,0.021
547.2,0.021
548,0.021
548.8,0.021
549.5,0.022
550.3,0.022
551.1,0.022
551.9,0.022
552.7,0.021
553.5,0.022
554.3,0.022
555.1,0.022
555.8,0.022
556.6,0.022
557.4,0.022
558.2,0.022
559,0.021
559.8,0.02
560.6,0.02
561.4,0.02
562.1,0.02
562.9,0.021
563.7,0.021
564.5,0.021
565.3,0.021
566.1,0.021
566.9,0.021
567.7,0.021
568.4,0.021
569.2,0.021
570,0.021
570.8,0.02
571.6,0.02
572.4,0.02
573.2,0.021
574,0.02
574.7,0.02
575.5,0.02
576.3,0.02
577.1,0.021
577.9,0.021
578.7,0.021
579.5,0.02
580.3,0.02
581,0.02
581.8,0.02
582.6,0.02
583.4,0.021
584.2,0.02
585,0.021
585.8,0.02
586.6,0.02
587.3,0.02
588.1,0.02
588.9,0.02
589.6,0.02
590.4,0.02
591.1,0.02
591.9,0.021
592.6,0.021
593.4,0.021
594.1,0.02
594.9,0.021
595.6,0.021
596.3,0.021
597.1,0.021
597.8,0.02
598.6,0.02
599.3,0.021
600.1,0.021
600.8,0.02
601.6,0.02
602.3,0.02
603.1,0.02
603.8,0.021
604.6,0.02
605.3,0.02
606.1,0.021
606.8,0.02
607.6,0.021
608.3,0.021
609.1,0.02
609.8,0.02
610.6,0.02
611.3,0.021
612,0.02
612.8,0.021
613.5,0.02
614.3,0.02
615,0.019
615.8,0.02
616.5,0.02
617.3,0.02
618,0.02
618.8,0.02
619.5,0.019
620.3,0.02
621,0.02
621.8,0.02
622.5,0.02
623.3,0.019
624,0.019
624.8,0.018
625.5,0.019
626.3,0.018
627,0.019
627.7,0.02
628.5,0.019
629.2,0.019
630,0.018
630.7,0.019
631.5,0.018
632.2,0.018
633,0.017
633.7,0.018
634.5,0.019
635.2,0.019
636,0.019
636.7,0.019
637.5,0.019
638.2,0.019
639,0.019
639.7,0.019
640.5,0.018
641.2,0.018
642,0.018
642.7,0.019
643.4,0.018
644.2,0.018
644.9,0.018
645.7,0.018
646.4,0.018
647.2,0.018
647.9,0.018
648.7,0.018
649.4,0.019
650.2,0.019
650.9,0.018
651.7,0.018
652.4,0.019
653.2,0.019
653.9,0.019
654.7,0.019
655.4,0.019
656.2,0.018
656.9,0.017
657.7,0.017
658.4,0.017
659.1,0.017
659.9,0.017
660.6,0.018
661.4,0.018
662.1,0.018
662.9,0.018
663.6,0.018
664.4,0.018
665.1,0.017
665.9,0.017
666.6,0.018
667.4,0.018
668.1,0.018
668.9,0.017
669.7,0.017
670.4,0.017
671.2,0.018
672,0.017
672.7,0.017
673.5,0.016
674.2,0.017
675,0.018
675.8,0.018
676.5,0.018
677.3,0.017
678.1,0.017
678.8,0.017
679.6,0.017
680.4,0.017
681.1,0.018
681.9,0.018
682.7,0.017
683.4,0.017
684.2,0.017
685,0.017
685.7,0.017
686.5,0.017
687.2,0.016
688,0.017
688.8,0.016
689.5,0.016
690.3,0.016
691.1,0.016
691.8,0.016
692.6,0.016
693.4,0.016
694.1,0.016
694.9,0.016
695.7,0.016
696.4,0.016
697.2,0.016
698,0.016
698.7,0.016
699.5,0.016
700.2,0.016
701,0.016
701.8,0.016
702.5,0.016
703.3,0.016
704.1,0.016
704.8,0.016
705.6,0.015
706.4,0.015
707.2,0.015
708,0.016
708.8,0.016
709.6,0.016
710.4,0.016
711.2,0.016
712.1,0.016
712.9,0.015
713.7,0.015
714.5,0.015
715.3,0.016
716.2,0.016
717,0.016
717.8,0.016
718.6,0.016
719.4,0.015
720.3,0.015
721.1,0.016
721.9,0.017
722.7,0.016
723.5,0.016
724.4,0.016
725.2,0.016
726,0.016
726.8,0.016
727.6,0.016
728.5,0.016
729.3,0.016
730.1,0.016
730.9,0.017
731.7,0.016
732.6,0.015
733.4,0.015
734.2,0.015
735,0.016
735.8,0.016
736.7,0.016
737.5,0.015
738.3,0.016
739.1,0.015
739.9,0.016
740.8,0.016
741.6,0.016
742.4,0.016
743.2,0.016
744,0.016
744.9,0.016
745.7,0.015
746.5,0.015
747.3,0.016
748.1,0.016
748.9,0.016
749.8,0.016
750.6,0.016
751.4,0.016
752.2,0.016
753,0.017
753.9,0.017
754.7,0.017
755.5,0.016
756.3,0.016
757.1,0.017
758,0.016
758.8,0.017
759.6,0.016
760.4,0.016
761.2,0.015
762.1,0.016
762.9,0.016
763.7,0.016
764.5,0.016
765.3,0.016
766.2,0.016
767,0.016
767.8,0.016
768.6,0.016
769.4,0.016
770.3,0.016
771.1,0.016
771.9,0.016
772.7,0.016
773.5,0.016
774.4,0.016
775.2,0.016
776,0.016
776.8,0.016
777.6,0.016
778.5,0.016
779.3,0.016
780.1,0.016
780.9,0.016
781.7,0.016
782.6,0.015
783.4,0.016
784.2,0.016
785,0.017
785.8,0.016
786.7,0.016
787.5,0.016
788.3,0.016
789.1,0.016
789.9,0.015
790.7,0.015
791.6,0.015
792.4,0.015
793.2,0.015
794,0.015
794.8,0.015
795.7,0.016
796.5,0.016
797.3,0.016
798.1,0.016
798.9,0.016
799.8,0.016
800.6,0.016
801.4,0.016
802.2,0.016
803,0.016
803.9,0.016
804.7,0.015
805.5,0.016
806.3,0.016
807.1,0.016
808,0.016
808.8,0.016
809.6,0.016
810.4,0.016
811.2,0.015
812.1,0.015
812.9,0.015
813.7,0.016
814.5,0.016
815.3,0.016
816.2,0.016
817,0.016
817.8,0.016
818.6,0.016
819.4,0.016
820.3,0.016
821.1,0.016
821.9,0.016
822.7,0.016
823.5,0.015
824.4,0.015
825.2,0.015
826,0.016
826.8,0.016
827.6,0.016
828.5,0.015
829.3,0.015
830.1,0.015
830.9,0.015
831.7,0.015
832.6,0.015
833.5,0.016
834.4,0.016
835.3,0.017
836.1,0.016
837,0.016
837.9,0.016
838.8,0.016
839.7,0.016
840.6,0.016
841.5,0.015
842.4,0.015
843.3,0.015
844.1,0.015
845,0.015
845.9,0.015
846.8,0.015
847.7,0.016
848.6,0.015
849.5,0.015
850.4,0.015
851.3,0.016
852.1,0.015
853,0.015
853.9,0.016
854.8,0.015
855.7,0.015
856.6,0.015
857.5,0.015
858.4,0.016
859.3,0.016
860.1,0.016
861,0.016
861.9,0.016
862.8,0.015
863.7,0.015
864.6,0.016
865.5,0.016
866.4,0.016
867.3,0.016
868.1,0.016
869,0.016
869.9,0.016
870.8,0.017
871.7,0.016
872.6,0.016
873.5,0.015
874.4,0.015
875.3,0.015
876.1,0.015
877,0.015
877.9,0.016
878.8,0.016
879.7,0.016
880.6,0.016
881.5,0.017
882.4,0.016
883.3,0.016
884.1,0.015
885,0.015
885.9,0.015
886.8,0.016
887.7,0.016
888.6,0.016
889.5,0.016
890.4,0.016
891.3,0.016
892.1,0.016
893,0.016
893.9,0.016
894.8,0.016
895.7,0.016
896.6,0.015
897.5,0.016
898.4,0.016
899.3,0.016
Vernier Format 2,
187_a3.txt 7/28/119 3:11:1,
Run 16,
Wavelength,Intensity
W,I
nm,rel
,
380.5,0.015
381.3,0.016
382.2,0.016
383,0.015
383.9,0.015
384.7,0.015
385.6,0.016
386.4,0.015
387.3,0.014
388.1,0.014
388.9,0.015
389.8,0.016
390.6,0.016
391.5,0.016
392.3,0.016
393.2,0.016
394,0.015
394.9,0.016
395.7,0.015
396.6,0.015
397.4,0.015
398.3,0.016
399.1,0.015
400,0.015
400.8,0.015
401.6,0.015
402.5,0.015
403.3,0.015
404.2,0.016
405,0.016
405.9,0.016
406.7,0.016
407.6,0.016
408.4,0.016
409.3,0.015
410.1,0.016
411,0.016
411.8,0.016
412.7,0.016
413.5,0.016
414.3,0.016
415.2,0.017
416,0.016
416.9,0.016
417.7,0.016
418.6,0.016
419.4,0.016
420.3,0.016
421.1,0.016
422,0.017
422.8,0.016
423.7,0.016
424.5,0.016
425.4,0.016
426.2,0.016
427,0.017
427.9,0.017
428.7,0.018
429.6,0.018
430.4,0.017
431.3,0.017
432.1,0.017
433,0.018
433.8,0.018
434.7,0.018
435.5,0.018
436.4,0.019
437.2,0.018
438.1,0.018
438.9,0.017
439.7,0.018
440.6,0.018
441.4,0.018
442.3,0.018
443.1,0.018
444,0.018
444.8,0.018
445.7,0.017
446.5,0.017
447.4,0.018
448.2,0.018
449.1,0.018
449.9,0.017
450.7,0.017
451.6,0.017
452.4,0.017
453.3,0.018
454.1,0.017
455,0.018
455.8,0.017
456.7,0.018
457.5,0.018
458.4,0.018
459.2,0.017
460.1,0.016
460.9,0.016
461.8,0.016
462.6,0.016
463.4,0.017
464.3,0.017
465.1,0.017
466,0.017
466.8,0.017
467.7,0.016
468.5,0.017
469.4,0.016
470.2,0.017
471.1,0.017
471.9,0.017
472.8,0.017
473.6,0.016
474.5,0.016
475.3,0.016
476.1,0.016
477,0.017
477.8,0.017
478.7,0.017
479.5,0.016
480.4,0.016
481.2,0.016
482.1,0.016
482.9,0.016
483.8,0.016
484.6,0.016
485.5,0.016
486.3,0.015
487.2,0.016
488,0.016
488.8,0.016
489.7,0.017
490.5,0.017
491.4,0.017
492.2,0.017
493.1,0.017
493.9,0.018
494.8,0.017
495.6,0.017
496.5,0.017
497.3,0.017
498.2,0.017
499,0.016
499.9,0.016
500.7,0.017
501.5,0.017
502.4,0.017
503.2,0.017
504.1,0.017
504.9,0.017
505.8,0.017
506.6,0.018
507.5,0.018
508.3,0.018
509.2,0.018
510,0.018
510.9,0.018
511.7,0.018
512.5,0.019
513.3,0.019
514.1,0.019
514.9,0.018
515.7,0.019
516.5,0.018
517.3,0.018
518,0.018
518.8,0.019
519.6,0.019
520.4,0.019
521.2,0.019
522,0.019
522.8,0.019
523.6,0.019
524.3,0.019
525.1,0.019
525.9,0.019
526.7,0.019
527.5,0.019
528.3,0.018
529.1,0.018
529.9,0.018
530.6,0.018
531.4,0.019
532.2,0.019
533,0.019
533.8,0.019
534.6,0.019
535.4,0.019
536.2,0.019
536.9,0.019
537.7,0.019
538.5,0.019
539.3,0.019
540.1,0.019
540.9,0.02
541.7,0.02
542.5,0.019
543.2,0.019
544,0.019
544.8,0.02
545.6,0.02
546.4,0.02
547.2,0.019
548,0.02
548.8,0.019
549.5,0.02
550.3,0.02
551.1,0.02
551.9,0.02
552.7,0.02
553.5,0.02
554.3,0.02
555.1,0.019
555.8,0.02
556.6,0.02
557.4,0.02
558.2,0.02
559,0.02
559.8,0.02
560.6,0.019
561.4,0.019
562.1,0.019
562.9,0.019
563.7,0.018
564.5,0.018
565.3,0.019
566.1,0.02
566.9,0.02
567.7,0.019
568.4,0.019
569.2,0.02
570,0.02
570.8,0.019
571.6,0.019
572.4,0.019
573.2,0.019
574,0.019
574.7,0.018
575.5,0.018
576.3,0.018
577.1,0.019
577.9,0.019
578.7,0.019
579.5,0.019
580.3,0.019
581,0.018
581.8,0.019
582.6,0.018
583.4,0.019
584.2,0.018
585,0.018
585.8,0.017
586.6,0.018
587.3,0.018
588.1,0.019
588.9,0.019
589.6,0.019
590.4,0.018
591.1,0.018
591.9,0.018
592.6,0.018
593.4,0.018
594.1,0.018
594.9,0.018
595.6,0.018
596.3,0.018
597.1,0.018
597.8,0.017
598.6,0.018
599.3,0.018
600.1,0.019
600.8,0.018
601.6,0.018
602.3,0.018
603.1,0.018
603.8,0.018
604.6,0.019
605.3,0.018
606.1,0.019
606.8,0.018
607.6,0.019
608.3,0.018
609.1,0.018
609.8,0.018
610.6,0.018
611.3,0.018
612,0.017
612.8,0.017
613.5,0.017
614.3,0.018
615,0.018
615.8,0.018
616.5,0.018
617.3,0.018
618,0.018
618.8,0.018
619.5,0.017
620.3,0.017
621,0.017
621.8,0.017
622.5,0.018
623.3,0.017
624,0.016
624.8,0.017
625.5,0.017
626.3,0.017
627,0.016
627.7,0.017
628.5,0.017
629.2,0.017
630,0.017
630.7,0.017
631.5,0.017
632.2,0.017
633,0.017
633.7,0.017
634.5,0.017
635.2,0.016
636,0.017
636.7,0.017
637.5,0.017
638.2,0.017
639,0.017
639.7,0.017
640.5,0.016
641.2,0.015
642,0.017
642.7,0.017
643.4,0.017
644.2,0.016
644.9,0.016
645.7,0.016
646.4,0.017
647.2,0.017
647.9,0.017
648.7,0.017
649.4,0.017
650.2,0.017
650.9,0.017
651.7,0.017
652.4,0.017
653.2,0.016
653.9,0.017
654.7,0.017
655.4,0.017
656.2,0.017
656.9,0.016
657.7,0.016
658.4,0.016
659.1,0.016
659.9,0.016
660.6,0.016
661.4,0.016
662.1,0.016
662.9,0.016
663.6,0.016
664.4,0.016
665.1,0.016
665.9,0.017
666.6,0.017
667.4,0.017
668.1,0.016
668.9,0.016
669.7,0.016
670.4,0.016
671.2,0.016
672,0.016
672.7,0.015
673.5,0.015
674.2,0.016
675,0.017
675.8,0.017
676.5,0.016
677.3,0.016
678.1,0.016
678.8,0.016
679.6,0.016
680.4,0.016
681.1,0.017
681.9,0.016
682.7,0.017
683.4,0.016
684.2,0.016
685,0.016
685.7,0.016
686.5,0.016
687.2,0.015
688,0.015
688.8,0.015
689.5,0.015
690.3,0.015
691.1,0.016
691.8,0.015
692.6,0.016
693.4,0.015
694.1,0.015
694.9,0.016
695.7,0.016
696.4,0.016
697.2,0.016
698,0.016
698.7,0.016
699.5,0.016
700.2,0.016
701,0.015
701.8,0.015
702.5,0.016
703.3,0.016
704.1,0.016
704.8,0.016
705.6,0.016
706.4,0.016
707.2,0.017
708,0.016
708.8,0.017
709.6,0.016
710.4,0.016
711.2,0.016
712.1,0.016
712.9,0.016
713.7,0.016
714.5,0.016
715.3,0.016
716.2,0.016
717,0.016
717.8,0.015
718.6,0.015
719.4,0.016
720.3,0.016
721.1,0.017
721.9,0.017
722.7,0.016
723.5,0.016
724.4,0.016
725.2,0.016
726,0.015
726.8,0.015
727.6,0.016
728.5,0.016
729.3,0.016
730.1,0.016
730.9,0.017
731.7,0.016
732.6,0.016
733.4,0.016
734.2,0.017
735,0.017
735.8,0.016
736.7,0.016
737.5,0.016
738.3,0.016
739.1,0.016
739.9,0.016
740.8,0.016
741.6,0.016
742.4,0.016
743.2,0.017
744,0.017
744.9,0.016
745.7,0.015
746.5,0.016
747.3,0.016
748.1,0.016
748.9,0.016
749.8,0.016
750.6,0.016
751.4,0.016
752.2,0.016
753,0.016
753.9,0.015
754.7,0.015
755.5,0.016
756.3,0.017
757.1,0.017
758,0.017
758.8,0.016
759.6,0.016
760.4,0.016
761.2,0.015
762.1,0.016
762.9,0.016
763.7,0.016
764.5,0.016
765.3,0.016
766.2,0.016
767,0.016
767.8,0.016
768.6,0.016
769.4,0.016
770.3,0.016
771.1,0.016
771.9,0.016
772.7,0.016
773.5,0.015
774.4,0.015
775.2,0.016
776,0.016
776.8,0.016
777.6,0.016
778.5,0.016
779.3,0.015
780.1,0.015
780.9,0.015
781.7,0.016
782.6,0.016
783.4,0.016
784.2,0.016
785,0.015
785.8,0.016
786.7,0.016
787.5,0.017
788.3,0.017
789.1,0.016
789.9,0.016
790.7,0.016
791.6,0.016
792.4,0.015
793.2,0.016
794,0.016
794.8,0.016
795.7,0.015
796.5,0.015
797.3,0.016
798.1,0.016
798.9,0.016
799.8,0.015
800.6,0.015
801.4,0.015
802.2,0.016
803,0.015
803.9,0.016
804.7,0.015
805.5,0.015
806.3,0.015
807.1,0.015
808,0.015
808.8,0.015
809.6,0.015
810.4,0.015
811.2,0.015
812.1,0.016
812.9,0.016
813.7,0.016
814.5,0.016
815.3,0.016
816.2,0.016
817,0.016
817.8,0.016
818.6,0.015
819.4,0.016
820.3,0.016
821.1,0.016
821.9,0.016
822.7,0.016
823.5,0.016
824.4,0.015
825.2,0.016
826,0.017
826.8,0.017
827.6,0.017
828.5,0.016
829.3,0.016
830.1,0.016
830.9,0.016
831.7,0.016
832.6,0.016
833.5,0.016
834.4,0.016
835.3,0.016
836.1,0.016
837,0.017
837.9,0.016
838.8,0.016
839.7,0.016
840.6,0.015
841.5,0.015
842.4,0.015
843.3,0.015
844.1,0.016
845,0.015
845.9,0.016
846.8,0.015
847.7,0.016
848.6,0.016
849.5,0.016
850.4,0.015
851.3,0.015
852.1,0.015
853,0.015
853.9,0.015
854.8,0.015
855.7,0.016
856.6,0.015
857.5,0.015
858.4,0.015
859.3,0.015
860.1,0.016
861,0.016
861.9,0.015
862.8,0.015
863.7,0.015
864.6,0.016
865.5,0.016
866.4,0.016
867.3,0.016
868.1,0.016
869,0.016
869.9,0.015
870.8,0.015
871.7,0.016
872.6,0.016
873.5,0.016
874.4,0.015
875.3,0.015
876.1,0.015
877,0.015
877.9,0.015
878.8,0.016
879.7,0.016
880.6,0.016
881.5,0.016
882.4,0.016
883.3,0.015
884.1,0.015
885,0.015
885.9,0.015
886.8,0.016
887.7,0.015
888.6,0.015
889.5,0.015
890.4,0.016
891.3,0.016
892.1,0.016
893,0.016
893.9,0.015
894.8,0.015
895.7,0.015
896.6,0.016
897.5,0.016
898.4,0.015
899.3,0.015
Vernier Format 2,
187_a3.txt 7/28/119 3:11:1,
Run 17,
Wavelength,Intensity
W,I
nm,rel
,
380.5,0.016
381.3,0.015
382.2,0.015
383,0.015
383.9,0.015
384.7,0.015
385.6,0.015
386.4,0.016
387.3,0.015
388.1,0.016
388.9,0.015
389.8,0.016
390.6,0.015
391.5,0.015
392.3,0.015
393.2,0.015
394,0.016
394.9,0.016
395.7,0.015
396.6,0.016
397.4,0.015
398.3,0.016
399.1,0.015
400,0.015
400.8,0.015
401.6,0.015
402.5,0.016
403.3,0.015
404.2,0.015
405,0.015
405.9,0.016
406.7,0.016
407.6,0.016
408.4,0.015
409.3,0.015
410.1,0.015
411,0.015
411.8,0.015
412.7,0.015
413.5,0.015
414.3,0.016
415.2,0.016
416,0.016
416.9,0.016
417.7,0.016
418.6,0.016
419.4,0.016
420.3,0.016
421.1,0.015
422,0.016
422.8,0.015
423.7,0.016
424.5,0.016
425.4,0.016
426.2,0.017
427,0.017
427.9,0.017
428.7,0.016
429.6,0.016
430.4,0.016
431.3,0.017
432.1,0.018
433,0.018
433.8,0.017
434.7,0.017
435.5,0.017
436.4,0.017
437.2,0.017
438.1,0.018
438.9,0.018
439.7,0.018
440.6,0.017
441.4,0.017
442.3,0.017
443.1,0.017
444,0.017
444.8,0.017
445.7,0.017
446.5,0.017
447.4,0.017
448.2,0.017
449.1,0.017
449.9,0.017
450.7,0.017
451.6,0.017
452.4,0.017
453.3,0.017
454.1,0.017
455,0.017
455.8,0.017
456.7,0.017
457.5,0.017
458.4,0.017
459.2,0.017
460.1,0.016
460.9,0.017
461.8,0.016
462.6,0.016
463.4,0.016
464.3,0.017
465.1,0.016
466,0.016
466.8,0.015
467.7,0.015
468.5,0.016
469.4,0.016
470.2,0.017
471.1,0.016
471.9,0.016
472.8,0.016
473.6,0.017
474.5,0.016
475.3,0.016
476.1,0.016
477,0.016
477.8,0.015
478.7,0.016
479.5,0.016
480.4,0.016
481.2,0.016
482.1,0.016
482.9,0.016
483.8,0.016
484.6,0.016
485.5,0.016
486.3,0.016
487.2,0.016
488,0.015
488.8,0.015
489.7,0.016
490.5,0.017
491.4,0.016
492.2,0.017
493.1,0.016
493.9,0.016
494.8,0.016
495.6,0.016
496.5,0.017
497.3,0.016
498.2,0.016
499,0.016
499.9,0.016
500.7,0.017
501.5,0.017
502.4,0.017
503.2,0.017
504.1,0.017
504.9,0.017
505.8,0.017
506.6,0.017
507.5,0.017
508.3,0.017
509.2,0.017
510,0.017
510.9,0.018
511.7,0.018
512.5,0.017
513.3,0.017
514.1,0.017
514.9,0.017
515.7,0.017
516.5,0.017
517.3,0.018
518,0.017
518.8,0.017
519.6,0.017
520.4,0.017
521.2,0.017
522,0.017
522.8,0.017
523.6,0.017
524.3,0.017
525.1,0.018
525.9,0.017
526.7,0.017
527.5,0.017
528.3,0.017
529.1,0.017
529.9,0.017
530.6,0.017
531.4,0.017
532.2,0.017
533,0.017
533.8,0.017
534.6,0.017
535.4,0.017
536.2,0.018
536.9,0.018
537.7,0.017
538.5,0.016
539.3,0.016
540.1,0.017
540.9,0.017
541.7,0.017
542.5,0.017
543.2,0.018
544,0.017
544.8,0.018
545.6,0.017
546.4,0.018
547.2,0.017
548,0.018
548.8,0.017
549.5,0.018
550.3,0.017
551.1,0.017
551.9,0.017
552.7,0.016
553.5,0.016
554.3,0.017
555.1,0.017
555.8,0.017
556.6,0.017
557.4,0.018
558.2,0.018
559,0.018
559.8,0.017
560.6,0.017
561.4,0.017
562.1,0.017
562.9,0.018
563.7,0.018
564.5,0.018
565.3,0.017
566.1,0.017
566.9,0.017
567.7,0.017
568.4,0.017
569.2,0.017
570,0.017
570.8,0.017
571.6,0.017
572.4,0.017
573.2,0.017
574,0.017
574.7,0.017
575.5,0.017
576.3,0.017
577.1,0.017
577.9,0.016
578.7,0.017
579.5,0.017
580.3,0.018
581,0.017
581.8,0.018
582.6,0.018
583.4,0.018
584.2,0.018
585,0.017
585.8,0.017
586.6,0.017
587.3,0.017
588.1,0.017
588.9,0.017
589.6,0.017
590.4,0.016
591.1,0.017
591.9,0.017
592.6,0.017
593.4,0.017
594.1,0.018
594.9,0.018
595.6,0.018
596.3,0.018
597.1,0.018
597.8,0.017
598.6,0.017
599.3,0.017
600.1,0.017
600.8,0.017
601.6,0.017
602.3,0.017
603.1,0.017
603.8,0.017
604.6,0.017
605.3,0.017
606.1,0.017
606.8,0.018
607.6,0.018
608.3,0.018
609.1,0.017
609.8,0.016
610.6,0.017
611.3,0.018
612,0.018
612.8,0.018
613.5,0.017
614.3,0.017
615,0.017
615.8,0.017
616.5,0.017
617.3,0.018
618,0.018
618.8,0.017
619.5,0.017
620.3,0.016
621,0.016
621.8,0.016
622.5,0.016
623.3,0.016
624,0.016
624.8,0.016
625.5,0.016
626.3,0.017
627,0.017
627.7,0.017
628.5,0.017
629.2,0.017
630,0.017
630.7,0.016
631.5,0.016
632.2,0.016
633,0.016
633.7,0.016
634.5,0.017
635.2,0.017
636,0.017
636.7,0.017
637.5,0.017
638.2,0.017
639,0.017
639.7,0.016
640.5,0.016
641.2,0.016
642,0.016
642.7,0.017
643.4,0.016
644.2,0.016
644.9,0.016
645.7,0.017
646.4,0.016
647.2,0.016
647.9,0.016
648.7,0.015
649.4,0.016
650.2,0.016
650.9,0.017
651.7,0.016
652.4,0.017
653.2,0.017
653.9,0.017
654.7,0.017
655.4,0.016
656.2,0.016
656.9,0.016
657.7,0.017
658.4,0.017
659.1,0.016
659.9,0.016
660.6,0.016
661.4,0.016
662.1,0.016
662.9,0.016
663.6,0.015
664.4,0.015
665.1,0.015
665.9,0.016
666.6,0.015
667.4,0.015
668.1,0.015
668.9,0.016
669.7,0.015
670.4,0.015
671.2,0.015
672,0.015
672.7,0.016
673.5,0.016
674.2,0.016
675,0.016
675.8,0.016
676.5,0.015
677.3,0.015
678.1,0.016
678.8,0.016
679.6,0.016
680.4,0.015
681.1,0.015
681.9,0.016
682.7,0.016
683.4,0.016
684.2,0.016
685,0.015
685.7,0.016
686.5,0.016
687.2,0.016
688,0.016
688.8,0.016
689.5,0.016
690.3,0.016
691.1,0.016
691.8,0.016
692.6,0.015
693.4,0.015
694.1,0.015
694.9,0.015
695.7,0.015
696.4,0.015
697.2,0.015
698,0.015
698.7,0.015
699.5,0.016
700.2,0.016
701,0.016
701.8,0.016
702.5,0.016
703.3,0.016
704.1,0.016
704.8,0.015
705.6,0.015
706.4,0.015
707.2,0.016
708,0.016
708.8,0.016
709.6,0.016
710.4,0.016
711.2,0.016
712.1,0.016
712.9,0.015
713.7,0.015
714.5,0.015
715.3,0.015
716.2,0.016
717,0.016
717.8,0.016
718.6,0.016
719.4,0.016
720.3,0.015
721.1,0.016
721.9,0.016
722.7,0.017
723.5,0.016
724.4,0.016
725.2,0.016
726,0.016
726.8,0.016
727.6,0.015
728.5,0.016
729.3,0.016
730.1,0.016
730.9,0.016
731.7,0.016
732.6,0.016
733.4,0.016
734.2,0.016
735,0.017
735.8,0.016
736.7,0.016
737.5,0.015
738.3,0.015
739.1,0.016
739.9,0.016
740.8,0.016
741.6,0.015
742.4,0.016
743.2,0.016
744,0.016
744.9,0.016
745.7,0.015
746.5,0.016
747.3,0.016
748.1,0.016
748.9,0.016
749.8,0.015
750.6,0.015
751.4,0.015
752.2,0.016
753,0.017
753.9,0.017
754.7,0.016
755.5,0.015
756.3,0.015
757.1,0.016
758,0.016
758.8,0.016
759.6,0.015
760.4,0.015
761.2,0.015
762.1,0.016
762.9,0.015
763.7,0.015
764.5,0.016
765.3,0.016
766.2,0.016
767,0.016
767.8,0.015
768.6,0.016
769.4,0.015
770.3,0.015
771.1,0.015
771.9,0.015
772.7,0.016
773.5,0.016
774.4,0.015
775.2,0.015
776,0.016
776.8,0.016
777.6,0.016
778.5,0.016
779.3,0.016
780.1,0.016
780.9,0.015
781.7,0.015
782.6,0.015
783.4,0.016
784.2,0.016
785,0.016
785.8,0.016
786.7,0.016
787.5,0.016
788.3,0.016
789.1,0.016
789.9,0.015
790.7,0.016
791.6,0.016
792.4,0.016
793.2,0.015
794,0.016
794.8,0.016
795.7,0.016
796.5,0.015
797.3,0.015
798.1,0.015
798.9,0.015
799.8,0.015
800.6,0.015
801.4,0.015
802.2,0.015
803,0.016
803.9,0.016
804.7,0.016
805.5,0.015
806.3,0.015
807.1,0.015
808,0.015
808.8,0.015
809.6,0.016
810.4,0.016
811.2,0.016
812.1,0.016
812.9,0.016
813.7,0.015
814.5,0.015
815.3,0.015
816.2,0.016
817,0.016
817.8,0.016
818.6,0.016
819.4,0.016
820.3,0.016
821.1,0.016
821.9,0.016
822.7,0.016
823.5,0.015
824.4,0.015
825.2,0.015
826,0.015
826.8,0.016
827.6,0.016
828.5,0.016
829.3,0.016
830.1,0.016
830.9,0.015
831.7,0.015
832.6,0.016
833.5,0.016
834.4,0.016
835.3,0.016
836.1,0.016
837,0.016
837.9,0.016
838.8,0.015
839.7,0.016
840.6,0.016
841.5,0.015
842.4,0.015
843.3,0.015
844.1,0.016
845,0.015
845.9,0.016
846.8,0.015
847.7,0.016
848.6,0.015
849.5,0.016
850.4,0.016
851.3,0.016
852.1,0.015
853,0.015
853.9,0.014
854.8,0.014
855.7,0.015
856.6,0.015
857.5,0.015
858.4,0.015
859.3,0.015
860.1,0.015
861,0.016
861.9,0.016
862.8,0.016
863.7,0.015
864.6,0.016
865.5,0.015
866.4,0.016
867.3,0.016
868.1,0.017
869,0.016
869.9,0.016
870.8,0.015
871.7,0.015
872.6,0.015
873.5,0.015
874.4,0.015
875.3,0.015
876.1,0.015
877,0.015
877.9,0.015
878.8,0.015
879.7,0.015
880.6,0.016
881.5,0.015
882.4,0.016
883.3,0.015
884.1,0.016
885,0.015
885.9,0.015
886.8,0.015
887.7,0.015
888.6,0.015
889.5,0.015
890.4,0.015
891.3,0.015
892.1,0.015
893,0.015
893.9,0.015
894.8,0.016
895.7,0.016
896.6,0.016
897.5,0.016
898.4,0.016
899.3,0.016
Vernier Format 2,
187_a3.txt 7/28/119 3:11:1,
Run 18,
Wavelength,Intensity
W,I
nm,rel
,
380.5,0.015
381.3,0.015
382.2,0.015
383,0.015
383.9,0.016
384.7,0.016
385.6,0.016
386.4,0.016
387.3,0.016
388.1,0.016
388.9,0.016
389.8,0.016
390.6,0.015
391.5,0.015
392.3,0.015
393.2,0.016
394,0.016
394.9,0.016
395.7,0.015
396.6,0.016
397.4,0.015
398.3,0.016
399.1,0.015
400,0.015
400.8,0.016
401.6,0.016
402.5,0.016
403.3,0.015
404.2,0.015
405,0.015
405.9,0.016
406.7,0.016
407.6,0.016
408.4,0.016
409.3,0.016
410.1,0.016
411,0.015
411.8,0.015
412.7,0.016
413.5,0.016
414.3,0.017
415.2,0.018
416,0.017
416.9,0.017
417.7,0.017
418.6,0.017
419.4,0.016
420.3,0.016
421.1,0.016
422,0.017
422.8,0.017
423.7,0.017
424.5,0.017
425.4,0.017
426.2,0.017
427,0.017
427.9,0.017
428.7,0.018
429.6,0.018
430.4,0.018
431.3,0.018
432.1,0.018
433,0.017
433.8,0.018
434.7,0.018
435.5,0.018
436.4,0.018
437.2,0.018
438.1,0.018
438.9,0.018
439.7,0.017
440.6,0.017
441.4,0.017
442.3,0.017
443.1,0.017
444,0.018
444.8,0.018
445.7,0.018
446.5,0.018
447.4,0.018
448.2,0.018
449.1,0.018
449.9,0.018
450.7,0.018
451.6,0.018
452.4,0.018
453.3,0.018
454.1,0.018
455,0.018
455.8,0.018
456.7,0.018
457.5,0.018
458.4,0.017
459.2,0.017
460.1,0.017
460.9,0.017
461.8,0.018
462.6,0.017
463.4,0.017
464.3,0.017
465.1,0.018
466,0.017
466.8,0.017
467.7,0.017
468.5,0.017
469.4,0.017
470.2,0.017
471.1,0.017
471.9,0.017
472.8,0.018
473.6,0.017
474.5,0.017
475.3,0.016
476.1,0.016
477,0.016
477.8,0.017
478.7,0.018
479.5,0.017
480.4,0.017
481.2,0.016
482.1,0.017
482.9,0.016
483.8,0.017
484.6,0.017
485.5,0.017
486.3,0.017
487.2,0.017
488,0.017
488.8,0.017
489.7,0.017
490.5,0.018
491.4,0.018
492.2,0.018
493.1,0.018
493.9,0.018
494.8,0.019
495.6,0.019
496.5,0.019
497.3,0.019
498.2,0.019
499,0.019
499.9,0.019
500.7,0.02
501.5,0.021
502.4,0.021
503.2,0.02
504.1,0.021
504.9,0.021
505.8,0.021
506.6,0.022
507.5,0.022
508.3,0.022
509.2,0.022
510,0.022
510.9,0.023
511.7,0.022
512.5,0.022
513.3,0.023
514.1,0.023
514.9,0.022
515.7,0.022
516.5,0.023
517.3,0.024
518,0.023
518.8,0.023
519.6,0.023
520.4,0.023
521.2,0.023
522,0.024
522.8,0.023
523.6,0.024
524.3,0.023
525.1,0.023
525.9,0.023
526.7,0.023
527.5,0.023
528.3,0.023
529.1,0.023
529.9,0.023
530.6,0.023
531.4,0.023
532.2,0.023
533,0.022
533.8,0.023
534.6,0.023
535.4,0.024
536.2,0.024
536.9,0.024
537.7,0.024
538.5,0.023
539.3,0.024
540.1,0.024
540.9,0.024
541.7,0.024
542.5,0.024
543.2,0.024
544,0.024
544.8,0.024
545.6,0.024
546.4,0.024
547.2,0.024
548,0.025
548.8,0.025
549.5,0.024
550.3,0.024
551.1,0.025
551.9,0.025
552.7,0.025
553.5,0.025
554.3,0.025
555.1,0.025
555.8,0.025
556.6,0.025
557.4,0.025
558.2,0.025
559,0.025
559.8,0.025
560.6,0.025
561.4,0.025
562.1,0.025
562.9,0.024
563.7,0.024
564.5,0.023
565.3,0.023
566.1,0.023
566.9,0.023
567.7,0.024
568.4,0.023
569.2,0.024
570,0.024
570.8,0.023
571.6,0.022
572.4,0.023
573.2,0.023
574,0.023
574.7,0.023
575.5,0.022
576.3,0.023
577.1,0.023
577.9,0.023
578.7,0.024
579.5,0.023
580.3,0.023
581,0.022
581.8,0.023
582.6,0.024
583.4,0.024
584.2,0.023
585,0.023
585.8,0.024
586.6,0.024
587.3,0.023
588.1,0.023
588.9,0.023
589.6,0.024
590.4,0.024
591.1,0.023
591.9,0.023
592.6,0.023
593.4,0.024
594.1,0.024
594.9,0.024
595.6,0.024
596.3,0.024
597.1,0.024
597.8,0.024
598.6,0.024
599.3,0.024
600.1,0.024
600.8,0.024
601.6,0.024
602.3,0.024
603.1,0.024
603.8,0.024
604.6,0.024
605.3,0.024
606.1,0.024
606.8,0.024
607.6,0.024
608.3,0.024
609.1,0.023
609.8,0.023
610.6,0.023
611.3,0.023
612,0.023
612.8,0.023
613.5,0.023
614.3,0.023
615,0.023
615.8,0.023
616.5,0.022
617.3,0.022
618,0.023
618.8,0.023
619.5,0.022
620.3,0.022
621,0.021
621.8,0.021
622.5,0.021
623.3,0.021
624,0.021
624.8,0.022
625.5,0.022
626.3,0.022
627,0.021
627.7,0.02
628.5,0.021
629.2,0.02
630,0.02
630.7,0.02
631.5,0.021
632.2,0.022
633,0.021
633.7,0.021
634.5,0.021
635.2,0.021
636,0.021
636.7,0.021
637.5,0.021
638.2,0.021
639,0.021
639.7,0.021
640.5,0.02
641.2,0.02
642,0.02
642.7,0.021
643.4,0.021
644.2,0.02
644.9,0.02
645.7,0.019
646.4,0.02
647.2,0.02
647.9,0.02
648.7,0.019
649.4,0.02
650.2,0.02
650.9,0.02
651.7,0.02
652.4,0.02
653.2,0.02
653.9,0.02
654.7,0.02
655.4,0.02
656.2,0.019
656.9,0.019
657.7,0.019
658.4,0.019
659.1,0.019
659.9,0.019
660.6,0.019
661.4,0.019
662.1,0.019
662.9,0.019
663.6,0.019
664.4,0.018
665.1,0.019
665.9,0.019
666.6,0.019
667.4,0.019
668.1,0.018
668.9,0.017
669.7,0.018
670.4,0.018
671.2,0.019
672,0.018
672.7,0.018
673.5,0.018
674.2,0.018
675,0.018
675.8,0.019
676.5,0.018
677.3,0.018
678.1,0.017
678.8,0.018
679.6,0.018
680.4,0.019
681.1,0.018
681.9,0.018
682.7,0.018
683.4,0.018
684.2,0.018
685,0.018
685.7,0.018
686.5,0.017
687.2,0.017
688,0.018
688.8,0.018
689.5,0.018
690.3,0.018
691.1,0.018
691.8,0.018
692.6,0.017
693.4,0.017
694.1,0.017
694.9,0.017
695.7,0.017
696.4,0.017
697.2,0.017
698,0.017
698.7,0.016
699.5,0.017
700.2,0.017
701,0.017
701.8,0.017
702.5,0.016
703.3,0.016
704.1,0.016
704.8,0.017
705.6,0.017
706.4,0.016
707.2,0.016
708,0.016
708.8,0.016
709.6,0.016
710.4,0.016
711.2,0.016
712.1,0.017
712.9,0.016
713.7,0.016
714.5,0.016
715.3,0.016
716.2,0.016
717,0.016
717.8,0.016
718.6,0.016
719.4,0.016
720.3,0.016
721.1,0.017
721.9,0.016
722.7,0.016
723.5,0.016
724.4,0.016
725.2,0.016
726,0.015
726.8,0.015
727.6,0.016
728.5,0.016
729.3,0.016
730.1,0.016
730.9,0.016
731.7,0.016
732.6,0.016
733.4,0.016
734.2,0.017
735,0.017
735.8,0.016
736.7,0.016
737.5,0.015
738.3,0.016
739.1,0.016
739.9,0.016
740.8,0.016
741.6,0.015
742.4,0.016
743.2,0.016
744,0.017
744.9,0.016
745.7,0.016
746.5,0.016
747.3,0.016
748.1,0.016
748.9,0.016
749.8,0.016
750.6,0.017
751.4,0.016
752.2,0.015
753,0.015
753.9,0.015
754.7,0.015
755.5,0.015
756.3,0.016
757.1,0.016
758,0.015
758.8,0.015
759.6,0.015
760.4,0.015
761.2,0.016
762.1,0.016
762.9,0.016
763.7,0.016
764.5,0.016
765.3,0.016
766.2,0.016
767,0.016
767.8,0.016
768.6,0.016
769.4,0.016
770.3,0.016
771.1,0.016
771.9,0.015
772.7,0.016
773.5,0.016
774.4,0.017
775.2,0.016
776,0.017
776.8,0.016
777.6,0.016
778.5,0.016
779.3,0.016
780.1,0.016
780.9,0.016
781.7,0.016
782.6,0.016
783.4,0.016
784.2,0.015
785,0.015
785.8,0.016
786.7,0.017
787.5,0.017
788.3,0.017
789.1,0.016
789.9,0.016
790.7,0.016
791.6,0.016
792.4,0.015
793.2,0.015
794,0.015
794.8,0.016
795.7,0.016
796.5,0.016
797.3,0.016
798.1,0.016
798.9,0.016
799.8,0.015
800.6,0.015
801.4,0.015
802.2,0.015
803,0.016
803.9,0.015
804.7,0.016
805.5,0.016
806.3,0.016
807.1,0.016
808,0.016
808.8,0.016
809.6,0.017
810.4,0.017
811.2,0.016
812.1,0.016
812.9,0.016
813.7,0.016
814.5,0.015
815.3,0.015
816.2,0.015
817,0.015
817.8,0.016
818.6,0.016
819.4,0.016
820.3,0.016
821.1,0.016
821.9,0.016
822.7,0.016
823.5,0.016
824.4,0.016
825.2,0.016
826,0.016
826.8,0.016
827.6,0.016
828.5,0.016
829.3,0.016
830.1,0.016
830.9,0.016
831.7,0.016
832.6,0.015
833.5,0.016
834.4,0.016
835.3,0.016
836.1,0.016
837,0.016
837.9,0.016
838.8,0.016
839.7,0.016
840.6,0.016
841.5,0.016
842.4,0.016
843.3,0.016
844.1,0.016
845,0.017
845.9,0.016
846.8,0.016
847.7,0.016
848.6,0.016
849.5,0.016
850.4,0.016
851.3,0.016
852.1,0.016
853,0.016
853.9,0.015
854.8,0.015
855.7,0.016
856.6,0.016
857.5,0.015
858.4,0.015
859.3,0.015
860.1,0.016
861,0.015
861.9,0.015
862.8,0.015
863.7,0.015
864.6,0.016
865.5,0.015
866.4,0.016
867.3,0.016
868.1,0.016
869,0.016
869.9,0.016
870.8,0.016
871.7,0.016
872.6,0.016
873.5,0.016
874.4,0.015
875.3,0.015
876.1,0.015
877,0.015
877.9,0.015
878.8,0.015
879.7,0.016
880.6,0.016
881.5,0.016
882.4,0.016
883.3,0.016
884.1,0.016
885,0.017
885.9,0.016
886.8,0.015
887.7,0.015
888.6,0.015
889.5,0.015
890.4,0.015
891.3,0.016
892.1,0.015
893,0.015
893.9,0.015
894.8,0.015
895.7,0.015
896.6,0.016
897.5,0.016
898.4,0.016
899.3,0.015
Vernier Format 2,
187_a3.txt 7/28/119 3:11:1,
Run 19,
Wavelength,Intensity
W,I
nm,rel
,
380.5,0.015
381.3,0.016
382.2,0.016
383,0.016
383.9,0.015
384.7,0.015
385.6,0.015
386.4,0.015
387.3,0.015
388.1,0.015
388.9,0.016
389.8,0.015
390.6,0.015
391.5,0.015
392.3,0.015
393.2,0.015
394,0.016
394.9,0.016
395.7,0.016
396.6,0.016
397.4,0.015
398.3,0.015
399.1,0.015
400,0.015
400.8,0.015
401.6,0.014
402.5,0.015
403.3,0.016
404.2,0.016
405,0.016
405.9,0.016
406.7,0.017
407.6,0.017
408.4,0.016
409.3,0.015
410.1,0.016
411,0.016
411.8,0.016
412.7,0.016
413.5,0.016
414.3,0.017
415.2,0.017
416,0.017
416.9,0.017
417.7,0.017
418.6,0.017
419.4,0.017
420.3,0.017
421.1,0.017
422,0.016
422.8,0.017
423.7,0.016
424.5,0.017
425.4,0.017
426.2,0.017
427,0.017
427.9,0.017
428.7,0.018
429.6,0.017
430.4,0.017
431.3,0.017
432.1,0.017
433,0.017
433.8,0.018
434.7,0.018
435.5,0.018
436.4,0.018
437.2,0.017
438.1,0.018
438.9,0.018
439.7,0.018
440.6,0.017
441.4,0.017
442.3,0.017
443.1,0.017
444,0.017
444.8,0.016
445.7,0.017
446.5,0.017
447.4,0.017
448.2,0.017
449.1,0.017
449.9,0.017
450.7,0.017
451.6,0.017
452.4,0.017
453.3,0.017
454.1,0.018
455,0.017
455.8,0.017
456.7,0.017
457.5,0.018
458.4,0.018
459.2,0.017
460.1,0.017
460.9,0.016
461.8,0.017
462.6,0.017
463.4,0.016
464.3,0.016
465.1,0.017
466,0.016
466.8,0.016
467.7,0.016
468.5,0.017
469.4,0.017
470.2,0.017
471.1,0.016
471.9,0.016
472.8,0.016
473.6,0.016
474.5,0.016
475.3,0.016
476.1,0.015
477,0.016
477.8,0.016
478.7,0.016
479.5,0.016
480.4,0.016
481.2,0.016
482.1,0.015
482.9,0.015
483.8,0.017
484.6,0.017
485.5,0.016
486.3,0.016
487.2,0.016
488,0.016
488.8,0.016
489.7,0.016
490.5,0.017
491.4,0.017
492.2,0.017
493.1,0.017
493.9,0.017
494.8,0.017
495.6,0.017
496.5,0.017
497.3,0.017
498.2,0.017
499,0.017
499.9,0.016
500.7,0.017
501.5,0.016
502.4,0.016
503.2,0.017
504.1,0.017
504.9,0.017
505.8,0.017
506.6,0.017
507.5,0.017
508.3,0.017
509.2,0.017
510,0.017
510.9,0.018
511.7,0.017
512.5,0.017
513.3,0.018
514.1,0.018
514.9,0.018
515.7,0.018
516.5,0.018
517.3,0.018
518,0.018
518.8,0.017
519.6,0.017
520.4,0.018
521.2,0.018
522,0.018
522.8,0.018
523.6,0.018
524.3,0.018
525.1,0.018
525.9,0.017
526.7,0.018
527.5,0.017
528.3,0.018
529.1,0.018
529.9,0.018
530.6,0.017
531.4,0.018
532.2,0.018
533,0.017
533.8,0.017
534.6,0.017
535.4,0.018
536.2,0.017
536.9,0.018
537.7,0.018
538.5,0.018
539.3,0.018
540.1,0.018
540.9,0.018
541.7,0.018
542.5,0.018
543.2,0.019
544,0.018
544.8,0.019
545.6,0.018
546.4,0.018
547.2,0.018
548,0.018
548.8,0.019
549.5,0.019
550.3,0.019
551.1,0.018
551.9,0.018
552.7,0.018
553.5,0.017
554.3,0.018
555.1,0.018
555.8,0.018
556.6,0.018
557.4,0.018
558.2,0.018
559,0.018
559.8,0.018
560.6,0.018
561.4,0.018
562.1,0.017
562.9,0.017
563.7,0.017
564.5,0.017
565.3,0.017
566.1,0.018
566.9,0.017
567.7,0.017
568.4,0.017
569.2,0.018
570,0.018
570.8,0.017
571.6,0.017
572.4,0.017
573.2,0.018
574,0.017
574.7,0.017
575.5,0.017
576.3,0.017
577.1,0.018
577.9,0.017
578.7,0.017
579.5,0.018
580.3,0.018
581,0.018
581.8,0.018
582.6,0.018
583.4,0.019
584.2,0.018
585,0.019
585.8,0.019
586.6,0.019
587.3,0.019
588.1,0.019
588.9,0.019
589.6,0.019
590.4,0.019
591.1,0.019
591.9,0.019
592.6,0.019
593.4,0.02
594.1,0.02
594.9,0.02
595.6,0.02
596.3,0.02
597.1,0.021
597.8,0.02
598.6,0.021
599.3,0.02
600.1,0.021
600.8,0.021
601.6,0.021
602.3,0.021
603.1,0.021
603.8,0.021
604.6,0.022
605.3,0.022
606.1,0.022
606.8,0.021
607.6,0.022
608.3,0.022
609.1,0.022
609.8,0.021
610.6,0.021
611.3,0.021
612,0.022
612.8,0.021
613.5,0.021
614.3,0.021
615,0.02
615.8,0.021
616.5,0.021
617.3,0.021
618,0.022
618.8,0.021
619.5,0.02
620.3,0.02
621,0.02
621.8,0.021
622.5,0.021
623.3,0.021
624,0.02
624.8,0.021
625.5,0.021
626.3,0.021
627,0.021
627.7,0.02
628.5,0.02
629.2,0.02
630,0.02
630.7,0.02
631.5,0.02
632.2,0.02
633,0.02
633.7,0.02
634.5,0.021
635.2,0.021
636,0.021
636.7,0.02
637.5,0.019
638.2,0.02
639,0.02
639.7,0.02
640.5,0.02
641.2,0.02
642,0.02
642.7,0.02
643.4,0.02
644.2,0.02
644.9,0.02
645.7,0.021
646.4,0.021
647.2,0.02
647.9,0.02
648.7,0.02
649.4,0.02
650.2,0.02
650.9,0.02
651.7,0.02
652.4,0.019
653.2,0.019
653.9,0.02
654.7,0.02
655.4,0.02
656.2,0.02
656.9,0.019
657.7,0.019
658.4,0.019
659.1,0.019
659.9,0.019
660.6,0.019
661.4,0.019
662.1,0.019
662.9,0.02
663.6,0.019
664.4,0.018
665.1,0.018
665.9,0.018
666.6,0.018
667.4,0.019
668.1,0.019
668.9,0.018
669.7,0.018
670.4,0.018
671.2,0.019
672,0.018
672.7,0.018
673.5,0.018
674.2,0.018
675,0.019
675.8,0.018
676.5,0.017
677.3,0.017
678.1,0.018
678.8,0.018
679.6,0.018
680.4,0.018
681.1,0.018
681.9,0.018
682.7,0.018
683.4,0.018
684.2,0.017
685,0.017
685.7,0.017
686.5,0.017
687.2,0.017
688,0.018
688.8,0.018
689.5,0.018
690.3,0.017
691.1,0.017
691.8,0.018
692.6,0.017
693.4,0.017
694.1,0.016
694.9,0.016
695.7,0.017
696.4,0.017
697.2,0.017
698,0.017
698.7,0.017
699.5,0.017
700.2,0.017
701,0.017
701.8,0.017
702.5,0.016
703.3,0.016
704.1,0.016
704.8,0.016
705.6,0.016
706.4,0.015
707.2,0.016
708,0.016
708.8,0.016
709.6,0.015
710.4,0.015
711.2,0.016
712.1,0.016
712.9,0.015
713.7,0.015
714.5,0.015
715.3,0.015
716.2,0.016
717,0.016
717.8,0.016
718.6,0.016
719.4,0.016
720.3,0.015
721.1,0.016
721.9,0.016
722.7,0.016
723.5,0.016
724.4,0.016
725.2,0.016
726,0.015
726.8,0.015
727.6,0.015
728.5,0.016
729.3,0.015
730.1,0.016
730.9,0.016
731.7,0.016
732.6,0.016
733.4,0.016
734.2,0.017
735,0.017
735.8,0.016
736.7,0.016
737.5,0.016
738.3,0.016
739.1,0.016
739.9,0.016
740.8,0.016
741.6,0.016
742.4,0.015
743.2,0.016
744,0.016
744.9,0.016
745.7,0.015
746.5,0.015
747.3,0.016
748.1,0.016
748.9,0.016
749.8,0.016
750.6,0.016
751.4,0.016
752.2,0.016
753,0.017
753.9,0.016
754.7,0.015
755.5,0.015
756.3,0.015
757.1,0.016
758,0.016
758.8,0.016
759.6,0.016
760.4,0.015
761.2,0.015
762.1,0.015
762.9,0.015
763.7,0.015
764.5,0.016
765.3,0.016
766.2,0.016
767,0.015
767.8,0.016
768.6,0.016
769.4,0.015
770.3,0.015
771.1,0.015
771.9,0.015
772.7,0.015
773.5,0.016
774.4,0.016
775.2,0.016
776,0.016
776.8,0.016
777.6,0.016
778.5,0.015
779.3,0.015
780.1,0.015
780.9,0.015
781.7,0.015
782.6,0.016
783.4,0.016
784.2,0.016
785,0.015
785.8,0.016
786.7,0.016
787.5,0.016
788.3,0.016
789.1,0.016
789.9,0.016
790.7,0.015
791.6,0.015
792.4,0.015
793.2,0.016
794,0.016
794.8,0.016
795.7,0.016
796.5,0.016
797.3,0.017
798.1,0.016
798.9,0.015
799.8,0.015
800.6,0.015
801.4,0.015
802.2,0.015
803,0.016
803.9,0.016
804.7,0.016
805.5,0.016
806.3,0.016
807.1,0.016
808,0.015
808.8,0.015
809.6,0.016
810.4,0.016
811.2,0.016
812.1,0.015
812.9,0.015
813.7,0.015
814.5,0.015
815.3,0.015
816.2,0.015
817,0.016
817.8,0.016
818.6,0.016
819.4,0.015
820.3,0.015
821.1,0.016
821.9,0.016
822.7,0.016
823.5,0.015
824.4,0.015
825.2,0.016
826,0.017
826.8,0.017
827.6,0.016
828.5,0.016
829.3,0.016
830.1,0.015
830.9,0.015
831.7,0.015
832.6,0.016
833.5,0.016
834.4,0.015
835.3,0.016
836.1,0.016
837,0.017
837.9,0.016
838.8,0.016
839.7,0.016
840.6,0.015
841.5,0.015
842.4,0.015
843.3,0.016
844.1,0.015
845,0.016
845.9,0.015
846.8,0.015
847.7,0.016
848.6,0.016
849.5,0.016
850.4,0.016
851.3,0.016
852.1,0.016
853,0.015
853.9,0.015
854.8,0.016
855.7,0.016
856.6,0.015
857.5,0.015
858.4,0.016
859.3,0.016
860.1,0.017
861,0.017
861.9,0.016
862.8,0.016
863.7,0.016
864.6,0.016
865.5,0.015
866.4,0.016
867.3,0.016
868.1,0.016
869,0.016
869.9,0.016
870.8,0.016
871.7,0.016
872.6,0.015
873.5,0.015
874.4,0.016
875.3,0.016
876.1,0.015
877,0.014
877.9,0.015
878.8,0.016
879.7,0.016
880.6,0.016
881.5,0.016
882.4,0.016
883.3,0.015
884.1,0.015
885,0.014
885.9,0.015
886.8,0.015
887.7,0.016
888.6,0.015
889.5,0.016
890.4,0.016
891.3,0.016
892.1,0.016
893,0.016
893.9,0.016
894.8,0.016
895.7,0.016
896.6,0.015
897.5,0.015
898.4,0.015
899.3,0.015
Vernier Format 2,
187_a3.txt 7/28/119 3:11:1,
Run 20,
Wavelength,Intensity
W,I
nm,rel
,
380.5,0.016
381.3,0.016
382.2,0.016
383,0.016
383.9,0.015
384.7,0.015
385.6,0.015
386.4,0.015
387.3,0.016
388.1,0.016
388.9,0.016
389.8,0.016
390.6,0.016
391.5,0.016
392.3,0.015
393.2,0.015
394,0.016
394.9,0.015
395.7,0.015
396.6,0.015
397.4,0.015
398.3,0.015
399.1,0.015
400,0.015
400.8,0.016
401.6,0.016
402.5,0.016
403.3,0.015
404.2,0.015
405,0.015
405.9,0.015
406.7,0.016
407.6,0.017
408.4,0.017
409.3,0.017
410.1,0.016
411,0.016
411.8,0.016
412.7,0.016
413.5,0.016
414.3,0.017
415.2,0.017
416,0.017
416.9,0.017
417.7,0.017
418.6,0.017
419.4,0.017
420.3,0.017
421.1,0.018
422,0.018
422.8,0.018
423.7,0.018
424.5,0.018
425.4,0.018
426.2,0.019
427,0.019
427.9,0.019
428.7,0.019
429.6,0.019
430.4,0.019
431.3,0.02
432.1,0.02
433,0.02
433.8,0.02
434.7,0.02
435.5,0.02
436.4,0.02
437.2,0.02
438.1,0.02
438.9,0.021
439.7,0.021
440.6,0.02
441.4,0.02
442.3,0.02
443.1,0.02
444,0.02
444.8,0.02
445.7,0.02
446.5,0.02
447.4,0.02
448.2,0.02
449.1,0.02
449.9,0.02
450.7,0.021
451.6,0.021
452.4,0.02
453.3,0.02
454.1,0.02
455,0.02
455.8,0.019
456.7,0.02
457.5,0.019
458.4,0.019
459.2,0.019
460.1,0.019
460.9,0.019
461.8,0.018
462.6,0.018
463.4,0.018
464.3,0.019
465.1,0.018
466,0.018
466.8,0.017
467.7,0.017
468.5,0.018
469.4,0.018
470.2,0.018
471.1,0.017
471.9,0.017
472.8,0.017
473.6,0.018
474.5,0.017
475.3,0.017
476.1,0.017
477,0.017
477.8,0.017
478.7,0.017
479.5,0.017
480.4,0.017
481.2,0.017
482.1,0.017
482.9,0.017
483.8,0.017
484.6,0.017
485.5,0.017
486.3,0.017
487.2,0.017
488,0.017
488.8,0.017
489.7,0.017
490.5,0.018
491.4,0.017
492.2,0.017
493.1,0.017
493.9,0.017
494.8,0.017
495.6,0.018
496.5,0.018
497.3,0.017
498.2,0.017
499,0.018
499.9,0.018
500.7,0.018
501.5,0.019
502.4,0.019
503.2,0.019
504.1,0.019
504.9,0.019
505.8,0.019
506.6,0.019
507.5,0.019
508.3,0.019
509.2,0.019
510,0.018
510.9,0.019
511.7,0.019
512.5,0.019
513.3,0.019
514.1,0.019
514.9,0.019
515.7,0.02
516.5,0.02
517.3,0.02
518,0.018
518.8,0.018
519.6,0.019
520.4,0.019
521.2,0.019
522,0.019
522.8,0.018
523.6,0.018
524.3,0.018
525.1,0.018
525.9,0.018
526.7,0.018
527.5,0.019
528.3,0.019
529.1,0.019
529.9,0.019
530.6,0.018
531.4,0.018
532.2,0.018
533,0.018
533.8,0.019
534.6,0.019
535.4,0.019
536.2,0.019
536.9,0.018
537.7,0.018
538.5,0.018
539.3,0.018
540.1,0.018
540.9,0.019
541.7,0.019
542.5,0.019
543.2,0.018
544,0.018
544.8,0.019
545.6,0.019
546.4,0.019
547.2,0.018
548,0.018
548.8,0.017
549.5,0.018
550.3,0.018
551.1,0.019
551.9,0.018
552.7,0.018
553.5,0.018
554.3,0.019
555.1,0.018
555.8,0.019
556.6,0.018
557.4,0.019
558.2,0.018
559,0.018
559.8,0.017
560.6,0.017
561.4,0.017
562.1,0.017
562.9,0.018
563.7,0.018
564.5,0.018
565.3,0.017
566.1,0.017
566.9,0.018
567.7,0.018
568.4,0.018
569.2,0.018
570,0.018
570.8,0.017
571.6,0.017
572.4,0.017
573.2,0.018
574,0.018
574.7,0.018
575.5,0.017
576.3,0.017
577.1,0.017
577.9,0.017
578.7,0.017
579.5,0.017
580.3,0.017
581,0.018
581.8,0.018
582.6,0.018
583.4,0.017
584.2,0.017
585,0.017
585.8,0.018
586.6,0.018
587.3,0.017
588.1,0.018
588.9,0.018
589.6,0.018
590.4,0.018
591.1,0.018
591.9,0.018
592.6,0.018
593.4,0.017
594.1,0.017
594.9,0.017
595.6,0.018
596.3,0.017
597.1,0.017
597.8,0.017
598.6,0.018
599.3,0.017
600.1,0.018
600.8,0.018
601.6,0.017
602.3,0.017
603.1,0.018
603.8,0.018
604.6,0.018
605.3,0.017
606.1,0.017
606.8,0.018
607.6,0.018
608.3,0.018
609.1,0.018
609.8,0.018
610.6,0.018
611.3,0.017
612,0.017
612.8,0.016
613.5,0.016
614.3,0.017
615,0.017
615.8,0.017
616.5,0.017
617.3,0.018
618,0.018
618.8,0.018
619.5,0.017
620.3,0.016
621,0.016
621.8,0.017
622.5,0.017
623.3,0.017
624,0.017
624.8,0.017
625.5,0.016
626.3,0.017
627,0.017
627.7,0.016
628.5,0.016
629.2,0.016
630,0.016
630.7,0.016
631.5,0.016
632.2,0.017
633,0.017
633.7,0.016
634.5,0.016
635.2,0.016
636,0.016
636.7,0.015
637.5,0.016
638.2,0.016
639,0.016
639.7,0.016
640.5,0.017
641.2,0.017
642,0.017
642.7,0.017
643.4,0.017
644.2,0.017
644.9,0.016
645.7,0.017
646.4,0.017
647.2,0.017
647.9,0.016
648.7,0.016
649.4,0.016
650.2,0.016
650.9,0.016
651.7,0.017
652.4,0.016
653.2,0.016
653.9,0.016
654.7,0.016
655.4,0.016
656.2,0.017
656.9,0.017
657.7,0.017
658.4,0.017
659.1,0.016
659.9,0.016
660.6,0.016
661.4,0.017
662.1,0.016
662.9,0.016
663.6,0.016
664.4,0.016
665.1,0.016
665.9,0.016
666.6,0.016
667.4,0.016
668.1,0.016
668.9,0.015
669.7,0.015
670.4,0.015
671.2,0.016
672,0.016
672.7,0.016
673.5,0.016
674.2,0.017
675,0.017
675.8,0.016
676.5,0.015
677.3,0.015
678.1,0.016
678.8,0.016
679.6,0.016
680.4,0.015
681.1,0.016
681.9,0.016
682.7,0.017
683.4,0.017
684.2,0.017
685,0.016
685.7,0.016
686.5,0.016
687.2,0.016
688,0.016
688.8,0.016
689.5,0.016
690.3,0.016
691.1,0.016
691.8,0.016
692.6,0.016
693.4,0.015
694.1,0.015
694.9,0.015
695.7,0.016
696.4,0.016
697.2,0.016
698,0.016
698.7,0.015
699.5,0.015
700.2,0.016
701,0.016
701.8,0.016
702.5,0.016
703.3,0.016
704.1,0.015
704.8,0.015
705.6,0.015
706.4,0.015
707.2,0.015
708,0.015
708.8,0.016
709.6,0.016
710.4,0.015
711.2,0.015
712.1,0.015
712.9,0.015
713.7,0.015
714.5,0.015
715.3,0.015
716.2,0.015
717,0.015
717.8,0.016
718.6,0.016
719.4,0.016
720.3,0.016
721.1,0.016
721.9,0.016
722.7,0.016
723.5,0.015
724.4,0.015
725.2,0.016
726,0.016
726.8,0.016
727.6,0.016
728.5,0.016
729.3,0.016
730.1,0.016
730.9,0.017
731.7,0.016
732.6,0.016
733.4,0.015
734.2,0.015
735,0.016
735.8,0.016
736.7,0.016
737.5,0.015
738.3,0.015
739.1,0.015
739.9,0.016
740.8,0.016
741.6,0.016
742.4,0.016
743.2,0.016
744,0.016
744.9,0.016
745.7,0.016
746.5,0.016
747.3,0.016
748.1,0.016
748.9,0.016
749.8,0.016
750.6,0.016
751.4,0.016
752.2,0.016
753,0.016
753.9,0.016
754.7,0.015
755.5,0.016
756.3,0.016
757.1,0.016
758,0.017
758.8,0.017
759.6,0.016
760.4,0.016
761.2,0.016
762.1,0.016
762.9,0.016
763.7,0.016
764.5,0.016
765.3,0.016
766.2,0.016
767,0.016
767.8,0.016
768.6,0.016
769.4,0.016
770.3,0.016
771.1,0.015
771.9,0.015
772.7,0.015
773.5,0.016
774.4,0.016
775.2,0.015
776,0.015
776.8,0.015
777.6,0.016
778.5,0.016
779.3,0.016
780.1,0.015
780.9,0.015
781.7,0.015
782.6,0.015
783.4,0.015
784.2,0.015
785,0.016
785.8,0.017
786.7,0.017
787.5,0.017
788.3,0.016
789.1,0.016
789.9,0.016
790.7,0.015
791.6,0.016
792.4,0.015
793.2,0.015
794,0.015
794.8,0.016
795.7,0.015
796.5,0.014
797.3,0.014
798.1,0.015
798.9,0.016
799.8,0.016
800.6,0.016
801.4,0.016
802.2,0.015
803,0.015
803.9,0.015
804.7,0.015
805.5,0.015
806.3,0.016
807.1,0.016
808,0.016
808.8,0.016
809.6,0.016
810.4,0.016
811.2,0.015
812.1,0.016
812.9,0.015
813.7,0.016
814.5,0.015
815.3,0.015
816.2,0.015
817,0.016
817.8,0.016
818.6,0.016
819.4,0.016
820.3,0.016
821.1,0.016
821.9,0.016
822.7,0.016
823.5,0.016
824.4,0.015
825.2,0.015
826,0.015
826.8,0.017
827.6,0.017
828.5,0.016
829.3,0.016
830.1,0.016
830.9,0.016
831.7,0.016
832.6,0.015
833.5,0.015
834.4,0.015
835.3,0.016
836.1,0.016
837,0.017
837.9,0.017
838.8,0.016
839.7,0.016
840.6,0.016
841.5,0.015
842.4,0.014
843.3,0.014
844.1,0.015
845,0.015
845.9,0.015
846.8,0.015
847.7,0.015
848.6,0.015
849.5,0.016
850.4,0.015
851.3,0.016
852.1,0.016
853,0.016
853.9,0.016
854.8,0.016
855.7,0.016
856.6,0.015
857.5,0.015
858.4,0.015
859.3,0.015
860.1,0.016
861,0.016
861.9,0.015
862.8,0.015
863.7,0.015
864.6,0.016
865.5,0.015
866.4,0.016
867.3,0.015
868.1,0.016
869,0.016
869.9,0.016
870.8,0.016
871.7,0.016
872.6,0.015
873.5,0.015
874.4,0.015
875.3,0.016
876.1,0.016
877,0.015
877.9,0.016
878.8,0.016
879.7,0.016
880.6,0.016
881.5,0.016
882.4,0.016
883.3,0.015
884.1,0.015
885,0.014
885.9,0.015
886.8,0.016
887.7,0.017
888.6,0.017
889.5,0.016
890.4,0.016
891.3,0.015
892.1,0.015
893,0.015
893.9,0.015
894.8,0.015
895.7,0.015
896.6,0.015
897.5,0.015
898.4,0.015
899.3,0.015
Vernier Format 2,
187_a3.txt 7/28/119 3:11:1,
Run 21,
Wavelength,Intensity
W,I
nm,rel
,
380.5,0.015
381.3,0.015
382.2,0.015
383,0.015
383.9,0.015
384.7,0.015
385.6,0.015
386.4,0.016
387.3,0.015
388.1,0.016
388.9,0.016
389.8,0.016
390.6,0.016
391.5,0.016
392.3,0.016
393.2,0.016
394,0.016
394.9,0.016
395.7,0.016
396.6,0.016
397.4,0.016
398.3,0.016
399.1,0.016
400,0.016
400.8,0.016
401.6,0.017
402.5,0.016
403.3,0.016
404.2,0.016
405,0.016
405.9,0.016
406.7,0.017
407.6,0.017
408.4,0.017
409.3,0.016
410.1,0.015
411,0.015
411.8,0.016
412.7,0.017
413.5,0.017
414.3,0.017
415.2,0.017
416,0.017
416.9,0.017
417.7,0.017
418.6,0.017
419.4,0.017
420.3,0.017
421.1,0.017
422,0.017
422.8,0.017
423.7,0.017
424.5,0.017
425.4,0.017
426.2,0.017
427,0.018
427.9,0.019
428.7,0.018
429.6,0.017
430.4,0.017
431.3,0.017
432.1,0.018
433,0.018
433.8,0.018
434.7,0.017
435.5,0.018
436.4,0.018
437.2,0.019
438.1,0.018
438.9,0.018
439.7,0.018
440.6,0.018
441.4,0.019
442.3,0.018
443.1,0.018
444,0.018
444.8,0.018
445.7,0.018
446.5,0.018
447.4,0.018
448.2,0.018
449.1,0.018
449.9,0.019
450.7,0.019
451.6,0.018
452.4,0.018
453.3,0.018
454.1,0.018
455,0.018
455.8,0.018
456.7,0.018
457.5,0.019
458.4,0.018
459.2,0.018
460.1,0.017
460.9,0.017
461.8,0.017
462.6,0.017
463.4,0.017
464.3,0.017
465.1,0.017
466,0.017
466.8,0.016
467.7,0.017
468.5,0.017
469.4,0.017
470.2,0.017
471.1,0.017
471.9,0.017
472.8,0.017
473.6,0.017
474.5,0.017
475.3,0.017
476.1,0.017
477,0.016
477.8,0.017
478.7,0.017
479.5,0.017
480.4,0.017
481.2,0.017
482.1,0.017
482.9,0.016
483.8,0.017
484.6,0.017
485.5,0.018
486.3,0.017
487.2,0.017
488,0.017
488.8,0.017
489.7,0.017
490.5,0.018
491.4,0.018
492.2,0.018
493.1,0.018
493.9,0.018
494.8,0.018
495.6,0.019
496.5,0.019
497.3,0.019
498.2,0.019
499,0.019
499.9,0.019
500.7,0.019
501.5,0.02
502.4,0.02
503.2,0.02
504.1,0.02
504.9,0.02
505.8,0.02
506.6,0.02
507.5,0.021
508.3,0.02
509.2,0.02
510,0.02
510.9,0.021
511.7,0.021
512.5,0.021
513.3,0.021
514.1,0.022
514.9,0.022
515.7,0.023
516.5,0.022
517.3,0.022
518,0.022
518.8,0.022
519.6,0.021
520.4,0.022
521.2,0.022
522,0.022
522.8,0.022
523.6,0.022
524.3,0.022
525.1,0.021
525.9,0.021
526.7,0.021
527.5,0.022
528.3,0.022
529.1,0.021
529.9,0.021
530.6,0.021
531.4,0.021
532.2,0.02
533,0.021
533.8,0.021
534.6,0.021
535.4,0.021
536.2,0.021
536.9,0.021
537.7,0.021
538.5,0.021
539.3,0.021
540.1,0.02
540.9,0.021
541.7,0.02
542.5,0.021
543.2,0.021
544,0.02
544.8,0.021
545.6,0.021
546.4,0.022
547.2,0.021
548,0.021
548.8,0.02
549.5,0.02
550.3,0.021
551.1,0.021
551.9,0.021
552.7,0.021
553.5,0.021
554.3,0.021
555.1,0.021
555.8,0.022
556.6,0.022
557.4,0.022
558.2,0.021
559,0.021
559.8,0.02
560.6,0.02
561.4,0.02
562.1,0.02
562.9,0.02
563.7,0.02
564.5,0.02
565.3,0.019
566.1,0.019
566.9,0.019
567.7,0.019
568.4,0.019
569.2,0.02
570,0.02
570.8,0.019
571.6,0.019
572.4,0.019
573.2,0.018
574,0.019
574.7,0.018
575.5,0.018
576.3,0.018
577.1,0.019
577.9,0.019
578.7,0.02
579.5,0.02
580.3,0.02
581,0.019
581.8,0.019
582.6,0.019
583.4,0.019
584.2,0.019
585,0.019
585.8,0.019
586.6,0.019
587.3,0.019
588.1,0.019
588.9,0.02
589.6,0.02
590.4,0.019
591.1,0.019
591.9,0.019
592.6,0.019
593.4,0.019
594.1,0.019
594.9,0.02
595.6,0.02
596.3,0.019
597.1,0.019
597.8,0.019
598.6,0.019
599.3,0.019
600.1,0.019
600.8,0.019
601.6,0.019
602.3,0.019
603.1,0.018
603.8,0.019
604.6,0.019
605.3,0.019
606.1,0.019
606.8,0.019
607.6,0.019
608.3,0.019
609.1,0.019
609.8,0.019
610.6,0.019
611.3,0.019
612,0.019
612.8,0.018
613.5,0.018
614.3,0.019
615,0.019
615.8,0.018
616.5,0.018
617.3,0.018
618,0.018
618.8,0.017
619.5,0.017
620.3,0.017
621,0.017
621.8,0.017
622.5,0.017
623.3,0.018
624,0.018
624.8,0.018
625.5,0.018
626.3,0.018
627,0.018
627.7,0.018
628.5,0.017
629.2,0.017
630,0.017
630.7,0.017
631.5,0.018
632.2,0.017
633,0.017
633.7,0.017
634.5,0.018
635.2,0.018
636,0.017
636.7,0.017
637.5,0.017
638.2,0.018
639,0.018
639.7,0.017
640.5,0.017
641.2,0.017
642,0.017
642.7,0.018
643.4,0.018
644.2,0.018
644.9,0.017
645.7,0.017
646.4,0.018
647.2,0.017
647.9,0.017
648.7,0.017
649.4,0.017
650.2,0.017
650.9,0.018
651.7,0.018
652.4,0.018
653.2,0.018
653.9,0.018
654.7,0.018
655.4,0.018
656.2,0.018
656.9,0.018
657.7,0.017
658.4,0.017
659.1,0.016
659.9,0.016
660.6,0.017
661.4,0.018
662.1,0.019
662.9,0.018
663.6,0.017
664.4,0.016
665.1,0.016
665.9,0.016
666.6,0.016
667.4,0.017
668.1,0.017
668.9,0.017
669.7,0.017
670.4,0.016
671.2,0.016
672,0.016
672.7,0.016
673.5,0.017
674.2,0.017
675,0.017
675.8,0.017
676.5,0.016
677.3,0.016
678.1,0.016
678.8,0.016
679.6,0.016
680.4,0.016
681.1,0.016
681.9,0.017
682.7,0.017
683.4,0.017
684.2,0.017
685,0.017
685.7,0.016
686.5,0.016
687.2,0.016
688,0.016
688.8,0.016
689.5,0.017
690.3,0.016
691.1,0.016
691.8,0.016
692.6,0.017
693.4,0.016
694.1,0.016
694.9,0.016
695.7,0.015
696.4,0.015
697.2,0.015
698,0.016
698.7,0.016
699.5,0.016
700.2,0.016
701,0.017
701.8,0.016
702.5,0.017
703.3,0.016
704.1,0.016
704.8,0.016
705.6,0.016
706.4,0.016
707.2,0.016
708,0.016
708.8,0.016
709.6,0.016
710.4,0.016
711.2,0.016
712.1,0.017
712.9,0.016
713.7,0.016
714.5,0.016
715.3,0.016
716.2,0.015
717,0.016
717.8,0.015
718.6,0.015
719.4,0.016
720.3,0.016
721.1,0.017
721.9,0.016
722.7,0.016
723.5,0.016
724.4,0.016
725.2,0.016
726,0.016
726.8,0.017
727.6,0.017
728.5,0.016
729.3,0.016
730.1,0.016
730.9,0.017
731.7,0.016
732.6,0.016
733.4,0.016
734.2,0.016
735,0.016
735.8,0.016
736.7,0.016
737.5,0.016
738.3,0.017
739.1,0.016
739.9,0.017
740.8,0.016
741.6,0.016
742.4,0.016
743.2,0.017
744,0.017
744.9,0.017
745.7,0.017
746.5,0.017
747.3,0.017
748.1,0.017
748.9,0.016
749.8,0.016
750.6,0.016
751.4,0.016
752.2,0.017
753,0.017
753.9,0.017
754.7,0.016
755.5,0.016
756.3,0.016
757.1,0.016
758,0.016
758.8,0.016
759.6,0.016
760.4,0.016
761.2,0.016
762.1,0.016
762.9,0.016
763.7,0.016
764.5,0.017
765.3,0.017
766.2,0.017
767,0.017
767.8,0.017
768.6,0.017
769.4,0.016
770.3,0.016
771.1,0.015
771.9,0.015
772.7,0.015
773.5,0.015
774.4,0.016
775.2,0.016
776,0.017
776.8,0.017
777.6,0.017
778.5,0.017
779.3,0.017
780.1,0.016
780.9,0.016
781.7,0.016
782.6,0.016
783.4,0.016
784.2,0.015
785,0.015
785.8,0.016
786.7,0.016
787.5,0.017
788.3,0.017
789.1,0.017
789.9,0.017
790.7,0.016
791.6,0.016
792.4,0.016
793.2,0.016
794,0.016
794.8,0.016
795.7,0.016
796.5,0.016
797.3,0.016
798.1,0.016
798.9,0.016
799.8,0.016
800.6,0.016
801.4,0.015
802.2,0.016
803,0.016
803.9,0.017
804.7,0.017
805.5,0.016
806.3,0.016
807.1,0.016
808,0.017
808.8,0.017
809.6,0.016
810.4,0.015
811.2,0.015
812.1,0.016
812.9,0.016
813.7,0.016
814.5,0.015
815.3,0.015
816.2,0.016
817,0.016
817.8,0.017
818.6,0.016
819.4,0.016
820.3,0.015
821.1,0.016
821.9,0.016
822.7,0.016
823.5,0.017
824.4,0.017
825.2,0.017
826,0.017
826.8,0.017
827.6,0.017
828.5,0.016
829.3,0.016
830.1,0.016
830.9,0.016
831.7,0.016
832.6,0.016
833.5,0.017
834.4,0.016
835.3,0.016
836.1,0.016
837,0.016
837.9,0.016
838.8,0.016
839.7,0.017
840.6,0.017
841.5,0.016
842.4,0.015
843.3,0.015
844.1,0.015
845,0.016
845.9,0.016
846.8,0.015
847.7,0.015
848.6,0.016
849.5,0.017
850.4,0.017
851.3,0.016
852.1,0.015
853,0.015
853.9,0.016
854.8,0.016
855.7,0.016
856.6,0.016
857.5,0.016
858.4,0.016
859.3,0.015
860.1,0.015
861,0.016
861.9,0.016
862.8,0.017
863.7,0.016
864.6,0.016
865.5,0.016
866.4,0.016
867.3,0.016
868.1,0.016
869,0.016
869.9,0.017
870.8,0.016
871.7,0.015
872.6,0.015
873.5,0.015
874.4,0.015
875.3,0.016
876.1,0.016
877,0.016
877.9,0.016
878.8,0.016
879.7,0.016
880.6,0.016
881.5,0.016
882.4,0.016
883.3,0.015
884.1,0.016
885,0.016
885.9,0.017
886.8,0.016
887.7,0.016
888.6,0.015
889.5,0.016
890.4,0.016
891.3,0.017
892.1,0.016
893,0.017
893.9,0.016
894.8,0.016
895.7,0.016
896.6,0.015
897.5,0.015
898.4,0.016
899.3,0.016
Vernier Format 2,
187_a3.txt 7/28/119 3:11:1,
Run 22,
Wavelength,Intensity
W,I
nm,rel
,
380.5,0.015
381.3,0.015
382.2,0.015
383,0.015
383.9,0.015
384.7,0.015
385.6,0.015
386.4,0.015
387.3,0.015
388.1,0.015
388.9,0.016
389.8,0.016
390.6,0.015
391.5,0.015
392.3,0.014
393.2,0.015
394,0.015
394.9,0.015
395.7,0.015
396.6,0.016
397.4,0.016
398.3,0.016
399.1,0.015
400,0.015
400.8,0.015
401.6,0.015
402.5,0.015
403.3,0.015
404.2,0.015
405,0.015
405.9,0.016
406.7,0.016
407.6,0.016
408.4,0.016
409.3,0.016
410.1,0.016
411,0.016
411.8,0.016
412.7,0.016
413.5,0.015
414.3,0.016
415.2,0.016
416,0.016
416.9,0.015
417.7,0.016
418.6,0.016
419.4,0.016
420.3,0.016
421.1,0.016
422,0.015
422.8,0.015
423.7,0.015
424.5,0.015
425.4,0.015
426.2,0.016
427,0.016
427.9,0.016
428.7,0.016
429.6,0.016
430.4,0.016
431.3,0.016
432.1,0.017
433,0.017
433.8,0.017
434.7,0.016
435.5,0.016
436.4,0.017
437.2,0.017
438.1,0.017
438.9,0.017
439.7,0.016
440.6,0.016
441.4,0.016
442.3,0.017
443.1,0.017
444,0.017
444.8,0.017
445.7,0.016
446.5,0.017
447.4,0.016
448.2,0.017
449.1,0.016
449.9,0.017
450.7,0.016
451.6,0.016
452.4,0.015
453.3,0.016
454.1,0.016
455,0.016
455.8,0.016
456.7,0.016
457.5,0.016
458.4,0.016
459.2,0.016
460.1,0.016
460.9,0.016
461.8,0.016
462.6,0.016
463.4,0.016
464.3,0.015
465.1,0.016
466,0.016
466.8,0.016
467.7,0.015
468.5,0.016
469.4,0.015
470.2,0.016
471.1,0.015
471.9,0.015
472.8,0.015
473.6,0.015
474.5,0.015
475.3,0.015
476.1,0.015
477,0.016
477.8,0.016
478.7,0.016
479.5,0.015
480.4,0.015
481.2,0.015
482.1,0.015
482.9,0.015
483.8,0.016
484.6,0.016
485.5,0.016
486.3,0.015
487.2,0.016
488,0.016
488.8,0.016
489.7,0.017
490.5,0.017
491.4,0.017
492.2,0.016
493.1,0.016
493.9,0.016
494.8,0.015
495.6,0.015
496.5,0.015
497.3,0.015
498.2,0.015
499,0.015
499.9,0.015
500.7,0.016
501.5,0.016
502.4,0.016
503.2,0.016
504.1,0.017
504.9,0.016
505.8,0.016
506.6,0.016
507.5,0.016
508.3,0.015
509.2,0.016
510,0.016
510.9,0.017
511.7,0.016
512.5,0.016
513.3,0.016
514.1,0.017
514.9,0.017
515.7,0.017
516.5,0.016
517.3,0.017
518,0.017
518.8,0.016
519.6,0.015
520.4,0.016
521.2,0.016
522,0.017
522.8,0.017
523.6,0.018
524.3,0.017
525.1,0.016
525.9,0.016
526.7,0.017
527.5,0.017
528.3,0.016
529.1,0.016
529.9,0.016
530.6,0.016
531.4,0.016
532.2,0.016
533,0.016
533.8,0.016
534.6,0.016
535.4,0.016
536.2,0.016
536.9,0.017
537.7,0.017
538.5,0.016
539.3,0.016
540.1,0.016
540.9,0.016
541.7,0.016
542.5,0.016
543.2,0.016
544,0.016
544.8,0.016
545.6,0.016
546.4,0.017
547.2,0.016
548,0.016
548.8,0.016
549.5,0.016
550.3,0.016
551.1,0.017
551.9,0.016
552.7,0.016
553.5,0.016
554.3,0.016
555.1,0.016
555.8,0.016
556.6,0.016
557.4,0.016
558.2,0.016
559,0.016
559.8,0.016
560.6,0.016
561.4,0.016
562.1,0.016
562.9,0.016
563.7,0.016
564.5,0.016
565.3,0.016
566.1,0.016
566.9,0.016
567.7,0.016
568.4,0.017
569.2,0.016
570,0.016
570.8,0.015
571.6,0.016
572.4,0.017
573.2,0.017
574,0.017
574.7,0.017
575.5,0.016
576.3,0.016
577.1,0.016
577.9,0.016
578.7,0.016
579.5,0.016
580.3,0.017
581,0.017
581.8,0.017
582.6,0.017
583.4,0.016
584.2,0.016
585,0.016
585.8,0.015
586.6,0.015
587.3,0.015
588.1,0.016
588.9,0.017
589.6,0.017
590.4,0.017
591.1,0.016
591.9,0.016
592.6,0.016
593.4,0.016
594.1,0.016
594.9,0.017
595.6,0.016
596.3,0.016
597.1,0.016
597.8,0.016
598.6,0.016
599.3,0.016
600.1,0.016
600.8,0.016
601.6,0.016
602.3,0.015
603.1,0.015
603.8,0.015
604.6,0.016
605.3,0.016
606.1,0.017
606.8,0.017
607.6,0.017
608.3,0.016
609.1,0.016
609.8,0.016
610.6,0.016
611.3,0.016
612,0.016
612.8,0.016
613.5,0.016
614.3,0.017
615,0.016
615.8,0.016
616.5,0.016
617.3,0.016
618,0.015
618.8,0.015
619.5,0.015
620.3,0.016
621,0.016
621.8,0.016
622.5,0.016
623.3,0.017
624,0.016
624.8,0.016
625.5,0.016
626.3,0.016
627,0.015
627.7,0.016
628.5,0.016
629.2,0.015
630,0.016
630.7,0.015
631.5,0.015
632.2,0.015
633,0.015
633.7,0.015
634.5,0.016
635.2,0.015
636,0.016
636.7,0.015
637.5,0.016
638.2,0.015
639,0.016
639.7,0.015
640.5,0.015
641.2,0.015
642,0.016
642.7,0.016
643.4,0.016
644.2,0.016
644.9,0.016
645.7,0.016
646.4,0.016
647.2,0.016
647.9,0.015
648.7,0.015
649.4,0.015
650.2,0.015
650.9,0.015
651.7,0.015
652.4,0.015
653.2,0.015
653.9,0.016
654.7,0.016
655.4,0.016
656.2,0.015
656.9,0.015
657.7,0.015
658.4,0.015
659.1,0.015
659.9,0.016
660.6,0.016
661.4,0.016
662.1,0.016
662.9,0.016
663.6,0.015
664.4,0.015
665.1,0.015
665.9,0.015
666.6,0.016
667.4,0.015
668.1,0.016
668.9,0.015
669.7,0.015
670.4,0.015
671.2,0.016
672,0.015
672.7,0.016
673.5,0.015
674.2,0.016
675,0.016
675.8,0.016
676.5,0.016
677.3,0.015
678.1,0.015
678.8,0.015
679.6,0.016
680.4,0.016
681.1,0.016
681.9,0.017
682.7,0.017
683.4,0.017
684.2,0.016
685,0.015
685.7,0.015
686.5,0.015
687.2,0.015
688,0.015
688.8,0.016
689.5,0.016
690.3,0.016
691.1,0.016
691.8,0.016
692.6,0.015
693.4,0.015
694.1,0.015
694.9,0.016
695.7,0.016
696.4,0.016
697.2,0.015
698,0.015
698.7,0.015
699.5,0.015
700.2,0.015
701,0.015
701.8,0.015
702.5,0.015
703.3,0.015
704.1,0.015
704.8,0.015
705.6,0.015
706.4,0.015
707.2,0.015
708,0.015
708.8,0.016
709.6,0.015
710.4,0.015
711.2,0.015
712.1,0.015
712.9,0.015
713.7,0.015
714.5,0.015
715.3,0.016
716.2,0.016
717,0.016
717.8,0.016
718.6,0.015
719.4,0.016
720.3,0.015
721.1,0.016
721.9,0.016
722.7,0.016
723.5,0.016
724.4,0.016
725.2,0.016
726,0.015
726.8,0.016
727.6,0.016
728.5,0.015
729.3,0.016
730.1,0.016
730.9,0.017
731.7,0.016
732.6,0.016
733.4,0.016
734.2,0.016
735,0.016
735.8,0.016
736.7,0.016
737.5,0.016
738.3,0.015
739.1,0.015
739.9,0.016
740.8,0.016
741.6,0.015
742.4,0.015
743.2,0.015
744,0.016
744.9,0.016
745.7,0.015
746.5,0.016
747.3,0.016
748.1,0.016
748.9,0.016
749.8,0.016
750.6,0.016
751.4,0.016
752.2,0.016
753,0.016
753.9,0.016
754.7,0.016
755.5,0.016
756.3,0.015
757.1,0.016
758,0.015
758.8,0.015
759.6,0.015
760.4,0.016
761.2,0.016
762.1,0.015
762.9,0.015
763.7,0.015
764.5,0.015
765.3,0.015
766.2,0.015
767,0.016
767.8,0.016
768.6,0.016
769.4,0.016
770.3,0.016
771.1,0.015
771.9,0.014
772.7,0.015
773.5,0.015
774.4,0.015
775.2,0.015
776,0.014
776.8,0.014
777.6,0.015
778.5,0.015
779.3,0.016
780.1,0.016
780.9,0.016
781.7,0.016
782.6,0.015
783.4,0.015
784.2,0.015
785,0.015
785.8,0.015
786.7,0.015
787.5,0.016
788.3,0.016
789.1,0.016
789.9,0.016
790.7,0.016
791.6,0.016
792.4,0.016
793.2,0.016
794,0.016
794.8,0.015
795.7,0.015
796.5,0.015
797.3,0.015
798.1,0.016
798.9,0.016
799.8,0.016
800.6,0.015
801.4,0.016
802.2,0.015
803,0.016
803.9,0.015
804.7,0.015
805.5,0.015
806.3,0.015
807.1,0.015
808,0.016
808.8,0.016
809.6,0.015
810.4,0.015
811.2,0.015
812.1,0.015
812.9,0.016
813.7,0.016
814.5,0.015
815.3,0.015
816.2,0.015
817,0.015
817.8,0.015
818.6,0.015
819.4,0.016
820.3,0.015
821.1,0.016
821.9,0.016
822.7,0.015
823.5,0.015
824.4,0.015
825.2,0.015
826,0.016
826.8,0.016
827.6,0.016
828.5,0.016
829.3,0.016
830.1,0.017
830.9,0.016
831.7,0.016
832.6,0.015
833.5,0.016
834.4,0.016
835.3,0.016
836.1,0.016
837,0.016
837.9,0.016
838.8,0.016
839.7,0.016
840.6,0.015
841.5,0.016
842.4,0.016
843.3,0.016
844.1,0.016
845,0.016
845.9,0.016
846.8,0.015
847.7,0.016
848.6,0.015
849.5,0.016
850.4,0.015
851.3,0.015
852.1,0.015
853,0.014
853.9,0.015
854.8,0.015
855.7,0.015
856.6,0.015
857.5,0.014
858.4,0.015
859.3,0.015
860.1,0.016
861,0.016
861.9,0.015
862.8,0.016
863.7,0.015
864.6,0.016
865.5,0.015
866.4,0.015
867.3,0.015
868.1,0.016
869,0.015
869.9,0.016
870.8,0.016
871.7,0.016
872.6,0.015
873.5,0.015
874.4,0.016
875.3,0.016
876.1,0.015
877,0.015
877.9,0.015
878.8,0.016
879.7,0.016
880.6,0.016
881.5,0.016
882.4,0.016
883.3,0.015
884.1,0.015
885,0.015
885.9,0.016
886.8,0.016
887.7,0.016
888.6,0.015
889.5,0.015
890.4,0.015
891.3,0.015
892.1,0.015
893,0.016
893.9,0.016
894.8,0.016
895.7,0.015
896.6,0.015
897.5,0.015
898.4,0.015
899.3,0.015